OOIBase32 Version 2.0.6.5 Data File
++++++++++++++++++++++++++++++++++++
Date: 04-23-2021, 12:05:39
User: Valued Ocean Optics Customer
Spectrometer Serial Number: USB2E5007
Spectrometer Channel: Master
Integration Time (msec): 45
Spectra Averaged: 20
Boxcar Smoothing: 0
Correct for Electrical Dark: Disabled
Time Normalized: Disabled
Dual-beam Reference: Disabled
Reference Channel: Master
Temperature: Not acquired
Spectrometer Type: S2000
ADC Type: USB2000
Number of Pixels in File: 2048
Graph Title: 
>>>>>Begin Spectral Data<<<<<
340.15	0.000
340.52	122.700
340.90	124.250
341.27	127.050
341.64	128.550
342.01	131.900
342.38	132.600
342.76	132.900
343.13	135.250
343.50	134.750
343.87	134.800
344.24	134.950
344.61	135.700
344.98	134.400
345.36	135.250
345.73	136.200
346.10	135.150
346.47	136.450
346.84	133.550
347.21	133.700
347.58	134.200
347.96	136.650
348.33	133.700
348.70	134.350
349.07	134.900
349.44	135.400
349.81	137.800
350.18	135.800
350.55	135.100
350.92	135.650
351.30	136.350
351.67	136.050
352.04	136.150
352.41	135.950
352.78	138.050
353.15	136.900
353.52	136.750
353.89	138.950
354.26	137.050
354.63	136.650
355.00	137.950
355.37	136.800
355.75	137.350
356.12	136.400
356.49	137.450
356.86	137.550
357.23	136.850
357.60	137.050
357.97	137.050
358.34	137.650
358.71	138.850
359.08	138.200
359.45	136.650
359.82	136.850
360.19	138.400
360.56	137.250
360.93	137.900
361.30	138.050
361.67	137.350
362.04	139.700
362.41	139.400
362.78	140.150
363.15	139.950
363.52	139.800
363.89	137.800
364.26	136.500
364.63	139.200
365.00	139.350
365.37	138.750
365.74	138.450
366.11	139.050
366.48	140.950
366.85	139.150
367.22	139.500
367.59	141.400
367.96	139.400
368.33	138.850
368.70	140.000
369.07	140.000
369.44	140.550
369.81	139.950
370.18	140.250
370.55	138.950
370.92	139.150
371.29	140.550
371.66	140.550
372.03	139.250
372.40	140.250
372.77	140.300
373.13	138.900
373.50	140.950
373.87	140.150
374.24	140.100
374.61	140.300
374.98	140.700
375.35	140.450
375.72	140.550
376.09	140.350
376.46	139.350
376.83	139.700
377.20	140.350
377.56	140.750
377.93	140.600
378.30	142.250
378.67	140.700
379.04	140.250
379.41	141.100
379.78	140.950
380.15	142.250
380.51	140.200
380.88	141.000
381.25	141.150
381.62	141.300
381.99	140.250
382.36	140.700
382.73	140.700
383.09	141.950
383.46	140.650
383.83	141.250
384.20	141.100
384.57	142.100
384.94	142.150
385.31	141.300
385.67	141.100
386.04	141.000
386.41	142.150
386.78	142.000
387.15	143.250
387.51	142.650
387.88	142.500
388.25	141.400
388.62	141.150
388.99	141.450
389.36	141.700
389.72	140.900
390.09	144.350
390.46	143.600
390.83	141.900
391.19	141.950
391.56	142.350
391.93	143.050
392.30	143.200
392.67	141.800
393.03	141.650
393.40	142.550
393.77	143.050
394.14	142.050
394.50	142.100
394.87	142.350
395.24	142.750
395.61	143.400
395.97	142.600
396.34	142.800
396.71	141.650
397.08	143.850
397.44	143.700
397.81	143.100
398.18	144.350
398.55	142.950
398.91	141.900
399.28	142.950
399.65	142.850
400.01	144.000
400.38	142.700
400.75	141.800
401.12	142.700
401.48	143.050
401.85	143.550
402.22	143.600
402.58	142.900
402.95	144.500
403.32	143.600
403.68	142.500
404.05	144.100
404.42	143.450
404.78	143.750
405.15	144.500
405.52	144.500
405.88	144.200
406.25	143.700
406.62	143.100
406.98	144.000
407.35	143.000
407.72	144.000
408.08	144.450
408.45	144.800
408.82	145.100
409.18	144.150
409.55	145.700
409.91	145.450
410.28	144.200
410.65	144.550
411.01	144.850
411.38	144.100
411.75	144.150
412.11	144.900
412.48	144.850
412.84	144.750
413.21	144.400
413.58	145.300
413.94	146.400
414.31	145.150
414.67	147.400
415.04	146.450
415.41	146.600
415.77	146.900
416.14	148.150
416.50	146.950
416.87	148.150
417.23	148.050
417.60	149.200
417.97	148.450
418.33	150.000
418.70	150.200
419.06	152.550
419.43	152.600
419.79	150.450
420.16	151.550
420.52	153.100
420.89	154.150
421.25	155.350
421.62	157.150
421.98	156.000
422.35	156.900
422.72	156.750
423.08	159.100
423.45	161.850
423.81	160.650
424.18	163.650
424.54	163.700
424.91	166.250
425.27	168.500
425.64	171.050
426.00	171.200
426.37	175.100
426.73	175.650
427.09	181.350
427.46	183.350
427.82	185.400
428.19	187.250
428.55	191.600
428.92	194.900
429.28	200.450
429.65	205.050
430.01	215.350
430.38	214.150
430.74	216.100
431.11	222.500
431.47	235.250
431.83	235.100
432.20	246.300
432.56	251.500
432.93	262.550
433.29	266.750
433.66	274.750
434.02	295.750
434.38	288.400
434.75	310.150
435.11	308.500
435.48	327.700
435.84	331.300
436.20	357.850
436.57	359.300
436.93	377.350
437.30	402.950
437.66	400.050
438.02	444.050
438.39	458.800
438.75	470.200
439.12	515.600
439.48	527.500
439.84	546.750
440.21	572.400
440.57	588.800
440.93	673.500
441.30	679.250
441.66	699.250
442.02	752.000
442.39	764.500
442.75	807.700
443.11	832.650
443.48	890.150
443.84	935.400
444.20	949.250
444.57	1080.550
444.93	1116.750
445.29	1222.500
445.66	1216.550
446.02	1297.350
446.38	1425.200
446.75	1473.250
447.11	1558.000
447.47	1551.900
447.84	1645.550
448.20	1791.250
448.56	1917.300
448.92	2005.050
449.29	2042.100
449.65	2103.600
450.01	2210.750
450.37	2208.150
450.74	2353.300
451.10	2467.550
451.46	2579.400
451.83	2504.850
452.19	2597.450
452.55	2532.050
452.91	2730.700
453.28	2819.900
453.64	2902.800
454.00	2920.100
454.36	2703.050
454.72	2951.550
455.09	2867.850
455.45	2941.000
455.81	2881.000
456.17	2830.850
456.54	2833.700
456.90	2840.600
457.26	2673.350
457.62	2703.250
457.98	2705.100
458.35	2692.550
458.71	2530.300
459.07	2505.500
459.43	2366.050
459.79	2354.950
460.16	2205.600
460.52	2151.850
460.88	2131.050
461.24	2122.050
461.60	2067.250
461.96	2074.750
462.33	1957.200
462.69	1879.550
463.05	1807.450
463.41	1813.000
463.77	1752.300
464.13	1657.950
464.49	1691.100
464.86	1622.300
465.22	1578.150
465.58	1552.700
465.94	1571.050
466.30	1490.950
466.66	1524.950
467.02	1507.600
467.38	1454.800
467.75	1419.100
468.11	1375.350
468.47	1351.000
468.83	1345.150
469.19	1332.750
469.55	1313.750
469.91	1263.700
470.27	1181.700
470.63	1212.650
470.99	1196.500
471.35	1139.450
471.72	1140.250
472.08	1120.650
472.44	1082.750
472.80	1031.250
473.16	1038.150
473.52	987.950
473.88	963.750
474.24	937.300
474.60	924.950
474.96	899.300
475.32	866.400
475.68	837.600
476.04	823.900
476.40	799.050
476.76	779.050
477.12	750.350
477.48	735.300
477.84	724.150
478.20	701.300
478.56	684.250
478.92	665.350
479.28	650.150
479.64	636.550
480.00	629.500
480.36	617.450
480.72	600.850
481.08	590.300
481.44	578.750
481.80	565.600
482.16	554.750
482.52	543.750
482.88	533.400
483.24	528.850
483.60	522.150
483.96	512.250
484.32	501.650
484.68	489.200
485.04	485.750
485.40	472.950
485.76	469.100
486.12	461.050
486.48	453.400
486.83	442.250
487.19	435.400
487.55	429.100
487.91	423.500
488.27	410.350
488.63	405.300
488.99	394.650
489.35	385.950
489.71	377.850
490.07	371.350
490.43	359.450
490.78	356.200
491.14	349.050
491.50	339.400
491.86	331.600
492.22	324.100
492.58	316.050
492.94	308.800
493.30	303.450
493.65	296.000
494.01	290.150
494.37	284.600
494.73	278.450
495.09	274.950
495.45	269.700
495.80	263.900
496.16	258.600
496.52	254.250
496.88	248.800
497.24	246.750
497.60	243.250
497.95	238.150
498.31	234.900
498.67	229.050
499.03	228.350
499.39	225.200
499.74	221.750
500.10	217.400
500.46	215.200
500.82	214.700
501.18	211.950
501.53	208.600
501.89	205.850
502.25	204.850
502.61	200.700
502.96	201.750
503.32	197.800
503.68	199.600
504.04	195.950
504.40	193.200
504.75	192.050
505.11	189.400
505.47	187.450
505.82	188.300
506.18	185.700
506.54	184.150
506.90	183.050
507.25	181.350
507.61	180.100
507.97	178.750
508.33	177.100
508.68	177.150
509.04	175.400
509.40	175.000
509.75	171.250
510.11	173.300
510.47	171.000
510.82	170.050
511.18	168.500
511.54	167.400
511.89	169.100
512.25	167.100
512.61	165.950
512.96	164.600
513.32	163.600
513.68	162.900
514.03	162.200
514.39	163.350
514.75	160.950
515.10	164.750
515.46	160.150
515.82	158.550
516.17	159.150
516.53	157.350
516.89	156.450
517.24	157.100
517.60	155.650
517.95	155.600
518.31	157.400
518.67	156.150
519.02	154.750
519.38	154.750
519.73	154.450
520.09	152.600
520.45	152.250
520.80	153.250
521.16	152.500
521.51	152.650
521.87	150.000
522.22	150.000
522.58	150.800
522.94	152.150
523.29	149.950
523.65	150.300
524.00	150.750
524.36	150.300
524.71	149.150
525.07	148.200
525.42	147.900
525.78	149.100
526.14	148.450
526.49	147.700
526.85	148.300
527.20	148.100
527.56	148.400
527.91	147.850
528.27	147.200
528.62	148.250
528.98	146.150
529.33	146.050
529.69	145.500
530.04	146.250
530.40	146.550
530.75	146.850
531.11	146.350
531.46	146.700
531.81	146.000
532.17	146.850
532.52	146.150
532.88	143.950
533.23	145.650
533.59	146.850
533.94	145.150
534.30	144.700
534.65	144.750
535.01	145.550
535.36	146.300
535.71	146.050
536.07	145.700
536.42	146.200
536.78	146.500
537.13	145.700
537.48	147.500
537.84	148.550
538.19	148.650
538.55	150.350
538.90	151.750
539.25	156.400
539.61	157.950
539.96	160.800
540.32	160.450
540.67	157.400
541.02	157.000
541.38	155.900
541.73	155.000
542.08	154.850
542.44	154.800
542.79	153.450
543.15	154.600
543.50	159.650
543.85	163.200
544.21	166.050
544.56	163.350
544.91	159.700
545.27	155.450
545.62	152.150
545.97	151.900
546.32	150.550
546.68	149.500
547.03	147.900
547.38	148.400
547.74	146.600
548.09	147.500
548.44	145.400
548.80	145.150
549.15	145.950
549.50	144.200
549.85	145.800
550.21	145.200
550.56	143.850
550.91	144.250
551.26	143.000
551.62	143.200
551.97	141.950
552.32	143.850
552.67	141.050
553.03	141.100
553.38	141.500
553.73	142.650
554.08	141.600
554.44	139.500
554.79	141.150
555.14	141.600
555.49	141.100
555.85	140.650
556.20	140.100
556.55	140.750
556.90	140.300
557.25	141.100
557.61	140.100
557.96	140.600
558.31	141.100
558.66	139.300
559.01	139.650
559.36	141.100
559.72	140.800
560.07	140.000
560.42	139.200
560.77	142.100
561.12	141.050
561.47	140.900
561.83	140.100
562.18	140.450
562.53	139.500
562.88	139.550
563.23	141.450
563.58	140.700
563.93	139.800
564.28	141.400
564.64	140.200
564.99	139.600
565.34	140.300
565.69	142.100
566.04	140.350
566.39	139.050
566.74	140.550
567.09	139.650
567.44	140.450
567.79	140.000
568.14	140.000
568.50	139.250
568.85	139.600
569.20	139.250
569.55	140.700
569.90	140.350
570.25	138.950
570.60	139.950
570.95	139.700
571.30	140.800
571.65	138.400
572.00	139.400
572.35	140.200
572.70	140.150
573.05	140.100
573.40	139.250
573.75	139.600
574.10	138.800
574.45	140.150
574.80	141.700
575.15	141.200
575.50	141.000
575.85	141.800
576.20	140.400
576.55	140.600
576.90	141.650
577.25	141.750
577.60	140.700
577.95	141.700
578.30	142.250
578.65	141.350
579.00	141.600
579.35	141.700
579.70	140.450
580.05	140.300
580.40	141.450
580.74	142.900
581.09	142.250
581.44	142.050
581.79	144.000
582.14	142.100
582.49	143.800
582.84	143.450
583.19	140.800
583.54	140.700
583.89	141.400
584.24	140.600
584.58	141.300
584.93	140.850
585.28	141.550
585.63	143.600
585.98	143.850
586.33	143.300
586.68	141.550
587.03	142.550
587.37	140.700
587.72	140.600
588.07	139.750
588.42	140.600
588.77	140.250
589.12	140.850
589.46	141.650
589.81	141.700
590.16	140.100
590.51	139.850
590.86	140.750
591.21	140.300
591.55	140.950
591.90	140.150
592.25	140.550
592.60	141.350
592.95	139.450
593.29	140.750
593.64	140.350
593.99	140.150
594.34	140.450
594.68	141.200
595.03	139.500
595.38	140.150
595.73	139.650
596.07	139.750
596.42	138.550
596.77	139.450
597.12	140.150
597.46	140.300
597.81	140.600
598.16	139.300
598.51	141.000
598.85	139.450
599.20	139.350
599.55	138.350
599.90	138.950
600.24	138.900
600.59	139.500
600.94	138.300
601.28	139.650
601.63	138.500
601.98	138.200
602.32	139.550
602.67	140.650
603.02	139.700
603.36	139.000
603.71	139.050
604.06	139.150
604.40	139.950
604.75	141.200
605.10	139.100
605.44	140.800
605.79	139.700
606.14	140.050
606.48	140.750
606.83	140.100
607.17	140.350
607.52	142.250
607.87	143.550
608.21	144.250
608.56	148.300
608.90	155.900
609.25	161.850
609.60	163.250
609.94	160.350
610.29	157.900
610.63	153.400
610.98	149.400
611.33	150.350
611.67	149.600
612.02	147.400
612.36	145.450
612.71	144.600
613.05	145.300
613.40	143.950
613.74	142.850
614.09	142.600
614.44	141.400
614.78	139.750
615.13	141.450
615.47	140.300
615.82	140.550
616.16	140.200
616.51	140.900
616.85	140.150
617.20	139.900
617.54	140.750
617.89	140.800
618.23	139.500
618.58	140.250
618.92	139.500
619.27	139.950
619.61	140.150
619.96	140.850
620.30	141.050
620.64	140.500
620.99	140.950
621.33	141.100
621.68	141.250
622.02	140.750
622.37	140.700
622.71	140.050
623.06	139.150
623.40	141.350
623.74	141.300
624.09	140.350
624.43	139.450
624.78	139.150
625.12	138.200
625.46	140.550
625.81	141.100
626.15	139.550
626.50	139.750
626.84	139.300
627.18	140.100
627.53	139.750
627.87	138.900
628.21	139.850
628.56	139.850
628.90	139.700
629.25	140.250
629.59	140.400
629.93	140.500
630.28	139.900
630.62	139.450
630.96	139.750
631.31	138.800
631.65	138.550
631.99	138.800
632.34	137.350
632.68	138.700
633.02	139.100
633.36	139.300
633.71	138.200
634.05	138.600
634.39	137.800
634.74	138.450
635.08	137.800
635.42	137.350
635.76	138.400
636.11	137.100
636.45	139.600
636.79	137.450
637.14	136.650
637.48	138.300
637.82	138.950
638.16	138.900
638.50	136.750
638.85	137.550
639.19	139.750
639.53	138.450
639.87	137.200
640.22	137.550
640.56	137.750
640.90	137.600
641.24	137.550
641.58	138.250
641.93	137.050
642.27	138.250
642.61	139.300
642.95	139.100
643.29	137.600
643.64	137.200
643.98	138.050
644.32	139.150
644.66	137.800
645.00	137.350
645.34	138.950
645.68	137.700
646.03	139.950
646.37	138.500
646.71	137.950
647.05	138.450
647.39	138.250
647.73	138.650
648.07	138.400
648.42	138.450
648.76	138.450
649.10	138.950
649.44	139.700
649.78	137.350
650.12	138.950
650.46	139.000
650.80	139.250
651.14	140.050
651.48	137.700
651.82	138.450
652.16	138.950
652.51	136.500
652.85	136.150
653.19	138.100
653.53	138.000
653.87	138.050
654.21	138.550
654.55	137.150
654.89	138.000
655.23	137.900
655.57	138.500
655.91	137.500
656.25	138.050
656.59	138.650
656.93	137.350
657.27	138.000
657.61	139.300
657.95	138.100
658.29	136.850
658.63	137.450
658.97	138.200
659.31	139.250
659.65	138.300
659.99	138.750
660.33	138.450
660.67	137.250
661.01	138.250
661.35	138.500
661.68	139.000
662.02	138.800
662.36	137.900
662.70	139.450
663.04	137.350
663.38	138.200
663.72	138.400
664.06	138.700
664.40	137.350
664.74	137.850
665.08	139.400
665.42	138.300
665.75	136.850
666.09	137.200
666.43	141.300
666.77	138.550
667.11	137.550
667.45	137.950
667.79	139.000
668.12	137.400
668.46	137.450
668.80	138.150
669.14	137.400
669.48	138.800
669.82	138.100
670.16	138.300
670.49	137.800
670.83	137.350
671.17	137.150
671.51	137.000
671.85	136.900
672.18	136.450
672.52	137.600
672.86	137.100
673.20	136.500
673.54	137.950
673.87	137.050
674.21	137.350
674.55	139.200
674.89	138.000
675.22	138.300
675.56	138.550
675.90	138.650
676.24	137.900
676.57	137.950
676.91	139.700
677.25	136.400
677.59	136.750
677.92	137.300
678.26	136.600
678.60	136.900
678.93	138.250
679.27	138.200
679.61	138.400
679.95	138.400
680.28	138.150
680.62	137.600
680.96	138.450
681.29	137.700
681.63	138.050
681.97	136.850
682.30	137.800
682.64	136.950
682.98	137.800
683.31	137.850
683.65	138.150
683.99	137.700
684.32	137.800
684.66	137.150
685.00	137.950
685.33	138.150
685.67	136.750
686.00	136.700
686.34	137.950
686.68	139.100
687.01	137.150
687.35	137.150
687.68	138.400
688.02	137.750
688.36	137.850
688.69	136.250
689.03	138.000
689.36	137.850
689.70	136.100
690.03	136.350
690.37	136.350
690.71	137.100
691.04	136.800
691.38	136.100
691.71	137.450
692.05	137.300
692.38	137.350
692.72	138.150
693.05	138.050
693.39	137.150
693.72	137.100
694.06	136.850
694.39	136.650
694.73	135.700
695.06	136.300
695.40	137.550
695.73	136.850
696.07	138.600
696.40	137.400
696.74	139.200
697.07	137.700
697.41	136.400
697.74	138.750
698.08	138.000
698.41	138.200
698.74	138.400
699.08	137.800
699.41	137.550
699.75	137.100
700.08	136.200
700.42	135.700
700.75	136.400
701.08	137.000
701.42	137.500
701.75	137.900
702.09	137.650
702.42	139.950
702.75	138.650
703.09	136.250
703.42	136.550
703.75	136.900
704.09	136.800
704.42	137.050
704.76	136.650
705.09	137.450
705.42	137.100
705.76	139.200
706.09	137.450
706.42	140.600
706.76	138.800
707.09	137.650
707.42	137.050
707.76	137.500
708.09	137.150
708.42	137.850
708.75	139.200
709.09	137.450
709.42	138.850
709.75	138.000
710.09	137.800
710.42	137.400
710.75	136.850
711.08	138.200
711.42	139.200
711.75	137.800
712.08	137.750
712.41	137.250
712.75	136.700
713.08	136.750
713.41	136.700
713.74	137.400
714.08	137.800
714.41	138.250
714.74	137.650
715.07	138.450
715.41	136.900
715.74	137.700
716.07	137.000
716.40	137.250
716.73	137.250
717.06	137.350
717.40	136.900
717.73	136.200
718.06	137.400
718.39	137.650
718.72	136.550
719.05	136.500
719.39	137.500
719.72	137.750
720.05	138.700
720.38	137.550
720.71	136.850
721.04	137.750
721.37	137.350
721.71	137.050
722.04	136.550
722.37	136.800
722.70	137.000
723.03	137.000
723.36	137.200
723.69	136.050
724.02	137.550
724.35	137.650
724.68	138.050
725.01	137.950
725.35	137.200
725.68	137.700
726.01	136.900
726.34	137.800
726.67	137.500
727.00	137.350
727.33	136.600
727.66	138.150
727.99	137.550
728.32	136.300
728.65	136.600
728.98	136.950
729.31	137.450
729.64	138.050
729.97	135.800
730.30	137.050
730.63	137.250
730.96	136.300
731.29	135.200
731.62	137.700
731.95	138.450
732.28	139.100
732.61	138.350
732.94	138.000
733.27	137.200
733.60	137.500
733.93	137.000
734.25	136.100
734.58	137.450
734.91	137.250
735.24	136.600
735.57	137.400
735.90	137.550
736.23	138.000
736.56	137.650
736.89	136.550
737.22	137.300
737.55	136.800
737.87	138.450
738.20	136.300
738.53	137.350
738.86	136.800
739.19	136.400
739.52	138.100
739.85	136.800
740.17	137.400
740.50	137.050
740.83	137.300
741.16	137.000
741.49	137.550
741.82	136.600
742.14	136.800
742.47	136.850
742.80	136.400
743.13	136.050
743.46	138.300
743.78	138.400
744.11	136.450
744.44	136.450
744.77	137.800
745.10	138.750
745.42	137.050
745.75	136.500
746.08	137.700
746.41	136.600
746.73	138.050
747.06	138.050
747.39	136.850
747.72	135.600
748.04	135.800
748.37	136.750
748.70	135.950
749.02	137.500
749.35	136.850
749.68	136.000
750.01	137.100
750.33	138.900
750.66	137.550
750.99	138.050
751.31	136.300
751.64	135.750
751.97	135.700
752.29	139.100
752.62	136.500
752.95	136.300
753.27	137.950
753.60	137.150
753.93	137.800
754.25	137.100
754.58	137.850
754.91	137.400
755.23	138.100
755.56	140.250
755.88	137.400
756.21	137.600
756.54	136.500
756.86	137.050
757.19	136.150
757.51	135.650
757.84	136.850
758.17	137.300
758.49	136.850
758.82	135.850
759.14	136.350
759.47	137.100
759.79	137.050
760.12	137.100
760.44	137.100
760.77	138.300
761.09	136.550
761.42	137.400
761.75	138.000
762.07	136.150
762.40	137.000
762.72	137.700
763.05	138.350
763.37	137.850
763.70	136.500
764.02	136.950
764.35	136.300
764.67	134.900
764.99	137.700
765.32	136.250
765.64	136.350
765.97	136.600
766.29	136.400
766.62	136.200
766.94	139.050
767.27	137.800
767.59	137.150
767.91	136.350
768.24	137.700
768.56	136.200
768.89	137.350
769.21	137.000
769.54	137.150
769.86	136.250
770.18	135.750
770.51	136.400
770.83	135.650
771.15	136.600
771.48	135.850
771.80	136.000
772.13	138.050
772.45	138.500
772.77	137.600
773.10	137.500
773.42	137.800
773.74	136.850
774.07	135.900
774.39	137.750
774.71	136.100
775.04	136.550
775.36	136.150
775.68	135.800
776.01	137.100
776.33	136.700
776.65	135.850
776.97	135.700
777.30	138.600
777.62	137.700
777.94	136.150
778.26	136.500
778.59	135.500
778.91	135.350
779.23	136.450
779.55	137.400
779.88	137.400
780.20	137.750
780.52	136.250
780.84	135.850
781.17	135.700
781.49	138.300
781.81	137.750
782.13	137.700
782.45	138.300
782.78	137.750
783.10	138.050
783.42	136.850
783.74	137.000
784.06	136.800
784.39	136.150
784.71	137.850
785.03	136.450
785.35	137.500
785.67	138.100
785.99	136.350
786.31	137.050
786.64	137.800
786.96	137.550
787.28	137.750
787.60	136.050
787.92	136.650
788.24	138.400
788.56	137.600
788.88	135.800
789.20	140.700
789.53	137.850
789.85	137.900
790.17	136.400
790.49	137.050
