OOIBase32 Version 2.0.6.5 Data File
++++++++++++++++++++++++++++++++++++
Date: 04-23-2021, 12:06:18
User: Valued Ocean Optics Customer
Spectrometer Serial Number: USB2E5007
Spectrometer Channel: Master
Integration Time (msec): 45
Spectra Averaged: 20
Boxcar Smoothing: 0
Correct for Electrical Dark: Disabled
Time Normalized: Disabled
Dual-beam Reference: Disabled
Reference Channel: Master
Temperature: Not acquired
Spectrometer Type: S2000
ADC Type: USB2000
Number of Pixels in File: 2048
Graph Title: 
>>>>>Begin Spectral Data<<<<<
340.15	0.000
340.52	123.550
340.90	124.850
341.27	126.400
341.64	127.600
342.01	129.550
342.38	130.750
342.76	131.700
343.13	134.400
343.50	134.150
343.87	133.050
344.24	134.100
344.61	135.000
344.98	135.350
345.36	132.950
345.73	134.000
346.10	133.550
346.47	134.550
346.84	132.700
347.21	132.700
347.58	133.100
347.96	136.200
348.33	134.150
348.70	133.900
349.07	133.850
349.44	135.050
349.81	136.400
350.18	135.200
350.55	134.900
350.92	134.900
351.30	135.000
351.67	133.750
352.04	133.600
352.41	133.400
352.78	136.200
353.15	136.200
353.52	134.550
353.89	137.450
354.26	136.100
354.63	134.950
355.00	137.000
355.37	135.650
355.75	136.350
356.12	135.250
356.49	136.050
356.86	136.850
357.23	135.050
357.60	136.400
357.97	135.350
358.34	135.200
358.71	137.050
359.08	136.750
359.45	136.050
359.82	137.150
360.19	137.450
360.56	137.050
360.93	136.500
361.30	137.100
361.67	135.900
362.04	138.850
362.41	137.550
362.78	137.050
363.15	139.050
363.52	137.900
363.89	136.500
364.26	136.500
364.63	136.950
365.00	138.200
365.37	137.050
365.74	137.950
366.11	135.900
366.48	137.700
366.85	138.550
367.22	137.900
367.59	139.450
367.96	136.950
368.33	137.050
368.70	137.700
369.07	138.500
369.44	138.650
369.81	137.950
370.18	139.350
370.55	137.050
370.92	138.450
371.29	138.550
371.66	138.350
372.03	138.350
372.40	138.500
372.77	138.050
373.13	138.700
373.50	139.250
373.87	137.850
374.24	138.150
374.61	139.200
374.98	138.600
375.35	139.900
375.72	139.000
376.09	139.950
376.46	138.500
376.83	138.850
377.20	139.150
377.56	139.700
377.93	138.800
378.30	139.500
378.67	139.550
379.04	139.850
379.41	138.950
379.78	139.100
380.15	140.550
380.51	138.600
380.88	139.700
381.25	139.200
381.62	140.300
381.99	140.550
382.36	139.650
382.73	138.450
383.09	139.900
383.46	138.900
383.83	139.900
384.20	139.300
384.57	140.350
384.94	140.600
385.31	139.050
385.67	139.500
386.04	138.850
386.41	139.100
386.78	139.500
387.15	141.100
387.51	141.400
387.88	140.700
388.25	140.800
388.62	140.800
388.99	140.300
389.36	139.900
389.72	140.100
390.09	142.750
390.46	141.650
390.83	141.050
391.19	140.700
391.56	141.050
391.93	140.450
392.30	141.550
392.67	141.350
393.03	139.900
393.40	141.500
393.77	140.850
394.14	141.200
394.50	140.700
394.87	140.400
395.24	140.350
395.61	141.100
395.97	141.450
396.34	140.800
396.71	140.500
397.08	142.150
397.44	140.050
397.81	141.100
398.18	141.550
398.55	141.700
398.91	141.300
399.28	141.400
399.65	141.850
400.01	142.700
400.38	141.650
400.75	141.950
401.12	141.000
401.48	140.650
401.85	141.150
402.22	141.950
402.58	141.800
402.95	142.050
403.32	141.850
403.68	140.850
404.05	141.950
404.42	142.100
404.78	143.050
405.15	143.100
405.52	142.850
405.88	142.500
406.25	141.950
406.62	140.700
406.98	140.350
407.35	141.250
407.72	141.500
408.08	142.300
408.45	142.950
408.82	142.000
409.18	141.450
409.55	142.600
409.91	143.150
410.28	141.550
410.65	142.350
411.01	141.750
411.38	142.150
411.75	142.050
412.11	143.050
412.48	144.150
412.84	143.450
413.21	142.900
413.58	142.450
413.94	143.700
414.31	142.400
414.67	145.050
415.04	142.050
415.41	143.450
415.77	145.400
416.14	143.900
416.50	144.750
416.87	144.850
417.23	144.850
417.60	145.300
417.97	145.250
418.33	145.900
418.70	146.950
419.06	147.100
419.43	146.100
419.79	147.450
420.16	147.450
420.52	149.200
420.89	148.300
421.25	149.900
421.62	150.700
421.98	149.550
422.35	151.100
422.72	151.250
423.08	152.500
423.45	154.600
423.81	154.050
424.18	155.100
424.54	154.300
424.91	156.900
425.27	157.900
425.64	159.800
426.00	161.800
426.37	164.850
426.73	163.700
427.09	167.200
427.46	169.350
427.82	170.700
428.19	171.900
428.55	173.900
428.92	177.050
429.28	181.400
429.65	182.800
430.01	192.350
430.38	188.500
430.74	192.150
431.11	194.950
431.47	206.700
431.83	204.350
432.20	213.050
432.56	216.800
432.93	224.850
433.29	227.300
433.66	232.500
434.02	247.250
434.38	244.650
434.75	255.850
435.11	256.900
435.48	267.900
435.84	271.300
436.20	289.600
436.57	291.000
436.93	304.550
437.30	319.250
437.66	319.600
438.02	349.150
438.39	360.900
438.75	370.900
439.12	401.450
439.48	409.950
439.84	423.100
440.21	440.350
440.57	452.650
440.93	511.100
441.30	517.150
441.66	533.250
442.02	571.200
442.39	576.650
442.75	607.550
443.11	626.750
443.48	668.100
443.84	700.700
444.20	714.550
444.57	805.750
444.93	837.650
445.29	909.700
445.66	906.400
446.02	966.000
446.38	1060.850
446.75	1095.050
447.11	1160.250
447.47	1156.150
447.84	1218.750
448.20	1342.750
448.56	1430.000
448.92	1491.700
449.29	1532.150
449.65	1576.200
450.01	1658.300
450.37	1661.400
450.74	1769.100
451.10	1857.500
451.46	1945.750
451.83	1887.350
452.19	1964.150
452.55	1923.700
452.91	2074.450
453.28	2135.200
453.64	2212.800
454.00	2219.250
454.36	2059.650
454.72	2246.350
455.09	2183.200
455.45	2229.850
455.81	2192.300
456.17	2155.150
456.54	2159.400
456.90	2155.250
457.26	2028.150
457.62	2049.400
457.98	2047.300
458.35	2041.900
458.71	1910.750
459.07	1896.200
459.43	1789.250
459.79	1781.550
460.16	1657.400
460.52	1616.750
460.88	1599.900
461.24	1594.900
461.60	1548.400
461.96	1557.050
462.33	1466.150
462.69	1406.500
463.05	1350.100
463.41	1358.700
463.77	1309.200
464.13	1240.550
464.49	1269.500
464.86	1216.100
465.22	1186.450
465.58	1169.200
465.94	1178.600
466.30	1120.900
466.66	1144.850
467.02	1136.000
467.38	1092.700
467.75	1066.700
468.11	1037.650
468.47	1018.850
468.83	1017.100
469.19	1011.000
469.55	993.350
469.91	956.850
470.27	897.850
470.63	924.300
470.99	910.700
471.35	869.500
471.72	867.250
472.08	854.500
472.44	822.600
472.80	790.350
473.16	791.250
473.52	758.800
473.88	738.150
474.24	721.800
474.60	711.550
474.96	690.450
475.32	670.600
475.68	644.550
476.04	639.050
476.40	618.200
476.76	604.150
477.12	582.050
477.48	572.850
477.84	560.350
478.20	547.050
478.56	531.850
478.92	519.700
479.28	510.100
479.64	496.900
480.00	491.500
480.36	485.200
480.72	470.300
481.08	465.250
481.44	456.750
481.80	446.250
482.16	436.500
482.52	432.750
482.88	425.500
483.24	421.500
483.60	417.800
483.96	407.350
484.32	401.300
484.68	393.900
485.04	390.600
485.40	382.750
485.76	375.200
486.12	370.600
486.48	366.250
486.83	358.850
487.19	352.550
487.55	347.650
487.91	344.300
488.27	336.950
488.63	332.600
488.99	323.650
489.35	320.050
489.71	311.100
490.07	307.650
490.43	300.750
490.78	294.050
491.14	289.250
491.50	285.050
491.86	278.300
492.22	270.150
492.58	267.750
492.94	259.900
493.30	259.800
493.65	252.300
494.01	247.900
494.37	244.450
494.73	239.900
495.09	236.400
495.45	230.500
495.80	229.950
496.16	225.150
496.52	220.850
496.88	218.050
497.24	215.150
497.60	215.600
497.95	210.000
498.31	208.900
498.67	204.000
499.03	202.750
499.39	199.450
499.74	197.750
500.10	195.750
500.46	195.400
500.82	193.700
501.18	191.500
501.53	188.350
501.89	186.800
502.25	184.650
502.61	181.550
502.96	183.450
503.32	180.800
503.68	182.300
504.04	179.000
504.40	176.850
504.75	177.350
505.11	174.250
505.47	174.950
505.82	174.000
506.18	171.750
506.54	170.400
506.90	169.350
507.25	169.500
507.61	168.900
507.97	167.850
508.33	164.350
508.68	165.500
509.04	165.750
509.40	163.900
509.75	162.900
510.11	162.550
510.47	162.250
510.82	160.400
511.18	158.800
511.54	159.450
511.89	159.050
512.25	157.450
512.61	158.300
512.96	157.150
513.32	154.200
513.68	155.200
514.03	154.950
514.39	155.250
514.75	153.900
515.10	156.250
515.46	153.900
515.82	151.750
516.17	151.500
516.53	151.850
516.89	152.000
517.24	150.000
517.60	150.950
517.95	151.100
518.31	150.200
518.67	151.000
519.02	149.450
519.38	149.400
519.73	148.350
520.09	147.800
520.45	148.400
520.80	147.900
521.16	148.000
521.51	146.750
521.87	145.850
522.22	145.400
522.58	146.900
522.94	146.150
523.29	144.900
523.65	145.350
524.00	148.700
524.36	147.400
524.71	144.950
525.07	144.800
525.42	145.550
525.78	145.400
526.14	145.700
526.49	145.950
526.85	145.050
527.20	144.750
527.56	144.400
527.91	144.800
528.27	144.050
528.62	144.550
528.98	142.750
529.33	142.800
529.69	143.000
530.04	141.950
530.40	143.550
530.75	143.650
531.11	143.250
531.46	144.200
531.81	142.650
532.17	144.250
532.52	142.550
532.88	142.000
533.23	141.400
533.59	143.900
533.94	143.000
534.30	142.950
534.65	141.500
535.01	143.050
535.36	143.800
535.71	142.500
536.07	143.250
536.42	144.150
536.78	144.050
537.13	143.150
537.48	144.750
537.84	145.600
538.19	148.000
538.55	148.500
538.90	149.950
539.25	153.900
539.61	156.000
539.96	157.900
540.32	157.200
540.67	153.900
541.02	154.500
541.38	153.900
541.73	153.150
542.08	151.850
542.44	152.400
542.79	152.550
543.15	152.500
543.50	158.250
543.85	162.250
544.21	164.650
544.56	161.300
544.91	159.350
545.27	153.100
545.62	149.650
545.97	150.100
546.32	149.700
546.68	147.650
547.03	145.000
547.38	147.100
547.74	145.650
548.09	145.850
548.44	143.650
548.80	144.850
549.15	142.700
549.50	141.400
549.85	143.450
550.21	143.100
550.56	143.250
550.91	142.250
551.26	141.650
551.62	142.750
551.97	140.800
552.32	140.000
552.67	139.650
553.03	140.300
553.38	139.300
553.73	139.800
554.08	139.900
554.44	140.100
554.79	140.400
555.14	139.850
555.49	138.150
555.85	139.300
556.20	138.300
556.55	138.100
556.90	139.200
557.25	138.750
557.61	138.950
557.96	139.300
558.31	138.650
558.66	138.800
559.01	139.850
559.36	139.650
559.72	138.200
560.07	139.350
560.42	138.550
560.77	140.200
561.12	138.950
561.47	139.100
561.83	138.050
562.18	139.000
562.53	137.950
562.88	139.250
563.23	140.250
563.58	138.650
563.93	137.950
564.28	139.100
564.64	138.900
564.99	138.550
565.34	138.700
565.69	141.100
566.04	138.050
566.39	137.600
566.74	139.300
567.09	138.100
567.44	140.200
567.79	138.650
568.14	139.700
568.50	138.200
568.85	137.850
569.20	138.250
569.55	139.100
569.90	138.500
570.25	138.050
570.60	137.400
570.95	138.100
571.30	138.050
571.65	137.750
572.00	137.100
572.35	138.500
572.70	138.800
573.05	137.850
573.40	138.250
573.75	138.000
574.10	137.600
574.45	139.000
574.80	139.900
575.15	139.100
575.50	139.850
575.85	139.200
576.20	138.600
576.55	137.650
576.90	139.900
577.25	139.950
577.60	139.800
577.95	139.700
578.30	142.150
578.65	141.250
579.00	140.950
579.35	141.600
579.70	139.950
580.05	139.350
580.40	139.650
580.74	141.850
581.09	140.700
581.44	140.400
581.79	141.650
582.14	140.550
582.49	142.600
582.84	140.500
583.19	138.700
583.54	141.550
583.89	141.300
584.24	139.700
584.58	140.950
584.93	140.050
585.28	141.900
585.63	140.450
585.98	140.800
586.33	140.000
586.68	139.150
587.03	139.900
587.37	139.400
587.72	138.650
588.07	138.800
588.42	140.800
588.77	139.800
589.12	139.500
589.46	139.250
589.81	139.000
590.16	138.200
590.51	139.150
590.86	139.350
591.21	139.250
591.55	140.750
591.90	140.500
592.25	139.700
592.60	139.200
592.95	138.950
593.29	138.700
593.64	137.500
593.99	139.400
594.34	138.900
594.68	139.300
595.03	138.000
595.38	138.000
595.73	138.200
596.07	137.500
596.42	138.050
596.77	138.550
597.12	139.500
597.46	138.050
597.81	138.450
598.16	138.850
598.51	140.150
598.85	139.350
599.20	138.000
599.55	139.000
599.90	139.500
600.24	137.700
600.59	138.000
600.94	138.250
601.28	138.250
601.63	138.300
601.98	137.550
602.32	137.650
602.67	138.400
603.02	140.350
603.36	138.400
603.71	137.950
604.06	138.050
604.40	138.100
604.75	139.250
605.10	138.900
605.44	139.900
605.79	138.150
606.14	138.200
606.48	139.300
606.83	139.400
607.17	139.700
607.52	139.700
607.87	141.400
608.21	143.050
608.56	146.750
608.90	155.800
609.25	159.550
609.60	160.900
609.94	158.550
610.29	155.650
610.63	150.400
610.98	148.450
611.33	147.800
611.67	146.450
612.02	147.350
612.36	144.300
612.71	145.000
613.05	143.400
613.40	142.550
613.74	141.600
614.09	140.850
614.44	140.350
614.78	138.250
615.13	139.400
615.47	139.400
615.82	138.150
616.16	137.600
616.51	139.450
616.85	139.450
617.20	138.550
617.54	140.750
617.89	140.050
618.23	138.650
618.58	139.600
618.92	139.100
619.27	138.000
619.61	139.400
619.96	138.750
620.30	139.100
620.64	139.900
620.99	140.100
621.33	139.400
621.68	141.050
622.02	140.250
622.37	139.000
622.71	138.450
623.06	138.700
623.40	140.100
623.74	138.950
624.09	140.250
624.43	139.550
624.78	137.650
625.12	138.400
625.46	139.000
625.81	137.650
626.15	138.100
626.50	139.550
626.84	138.300
627.18	139.700
627.53	139.150
627.87	138.900
628.21	138.950
628.56	140.200
628.90	139.100
629.25	138.750
629.59	139.450
629.93	139.400
630.28	139.000
630.62	137.200
630.96	138.400
631.31	138.250
631.65	138.400
631.99	138.200
632.34	137.750
632.68	137.750
633.02	136.850
633.36	137.200
633.71	138.050
634.05	138.050
634.39	137.250
634.74	136.450
635.08	136.150
635.42	136.450
635.76	137.900
636.11	137.050
636.45	139.350
636.79	137.500
637.14	136.250
637.48	136.800
637.82	137.050
638.16	136.500
638.50	136.700
638.85	137.400
639.19	139.100
639.53	137.500
639.87	136.150
640.22	135.750
640.56	135.500
640.90	136.000
641.24	136.850
641.58	136.400
641.93	136.650
642.27	136.900
642.61	137.450
642.95	137.400
643.29	136.950
643.64	137.050
643.98	136.900
644.32	137.050
644.66	136.800
645.00	136.850
645.34	137.450
645.68	137.600
646.03	137.850
646.37	136.750
646.71	136.350
647.05	138.000
647.39	137.700
647.73	138.350
648.07	137.550
648.42	138.600
648.76	137.650
649.10	138.600
649.44	139.600
649.78	137.450
650.12	139.000
650.46	136.400
650.80	137.300
651.14	139.350
651.48	135.650
651.82	136.850
652.16	138.450
652.51	137.150
652.85	134.850
653.19	136.250
653.53	136.900
653.87	136.600
654.21	136.400
654.55	137.800
654.89	137.450
655.23	138.650
655.57	137.400
655.91	135.950
656.25	136.850
656.59	136.650
656.93	136.050
657.27	135.150
657.61	137.500
657.95	136.200
658.29	136.250
658.63	138.250
658.97	138.000
659.31	139.350
659.65	137.800
659.99	136.950
660.33	138.400
660.67	137.150
661.01	137.400
661.35	137.650
661.68	137.550
662.02	135.900
662.36	136.050
662.70	137.200
663.04	135.900
663.38	137.500
663.72	137.150
664.06	136.850
664.40	135.750
664.74	137.700
665.08	136.800
665.42	137.000
665.75	135.900
666.09	136.900
666.43	139.300
666.77	138.000
667.11	136.150
667.45	137.900
667.79	136.750
668.12	136.900
668.46	137.400
668.80	136.900
669.14	137.200
669.48	137.000
669.82	136.950
670.16	137.650
670.49	137.000
670.83	137.050
671.17	135.950
671.51	136.650
671.85	136.800
672.18	136.800
672.52	136.400
672.86	136.750
673.20	136.050
673.54	137.500
673.87	136.850
674.21	136.850
674.55	137.350
674.89	137.250
675.22	137.800
675.56	136.850
675.90	136.450
676.24	135.950
676.57	136.250
676.91	137.600
677.25	135.850
677.59	136.400
677.92	135.500
678.26	135.750
678.60	136.850
678.93	137.550
679.27	137.300
679.61	136.950
679.95	135.300
680.28	137.150
680.62	136.750
680.96	137.100
681.29	136.000
681.63	135.900
681.97	135.850
682.30	136.250
682.64	136.150
682.98	136.500
683.31	137.450
683.65	137.700
683.99	134.800
684.32	136.750
684.66	136.600
685.00	136.200
685.33	137.350
685.67	137.250
686.00	135.900
686.34	135.950
686.68	138.850
687.01	138.200
687.35	136.100
687.68	138.100
688.02	136.300
688.36	136.800
688.69	136.350
689.03	136.900
689.36	137.250
689.70	136.400
690.03	137.550
690.37	137.350
690.71	136.850
691.04	136.700
691.38	135.950
691.71	136.550
692.05	135.600
692.38	136.600
692.72	136.800
693.05	137.200
693.39	136.500
693.72	137.250
694.06	135.750
694.39	136.000
694.73	136.300
695.06	136.000
695.40	135.900
695.73	136.350
696.07	137.450
696.40	136.100
696.74	137.350
697.07	137.700
697.41	135.150
697.74	138.800
698.08	135.100
698.41	135.100
698.74	136.400
699.08	135.600
699.41	136.900
699.75	136.400
700.08	135.600
700.42	135.450
700.75	135.650
701.08	135.000
701.42	135.700
701.75	136.300
702.09	137.200
702.42	138.450
702.75	137.050
703.09	136.050
703.42	135.150
703.75	135.850
704.09	135.900
704.42	136.600
704.76	136.550
705.09	136.050
705.42	135.550
705.76	137.050
706.09	136.550
706.42	138.700
706.76	137.500
707.09	136.750
707.42	136.000
707.76	135.350
708.09	135.800
708.42	136.900
708.75	137.300
709.09	135.950
709.42	136.200
709.75	136.300
710.09	137.400
710.42	136.350
710.75	136.050
711.08	136.050
711.42	137.450
711.75	137.550
712.08	136.100
712.41	136.400
712.75	136.550
713.08	136.700
713.41	135.700
713.74	136.700
714.08	136.400
714.41	136.800
714.74	136.450
715.07	138.100
715.41	135.250
715.74	137.150
716.07	136.550
716.40	137.600
716.73	136.450
717.06	135.450
717.40	135.000
717.73	135.650
718.06	136.200
718.39	136.650
718.72	137.550
719.05	137.000
719.39	136.600
719.72	136.800
720.05	136.000
720.38	136.400
720.71	136.650
721.04	136.750
721.37	135.550
721.71	135.300
722.04	136.100
722.37	137.100
722.70	136.050
723.03	136.950
723.36	135.550
723.69	135.350
724.02	135.950
724.35	135.700
724.68	137.050
725.01	137.150
725.35	136.100
725.68	136.100
726.01	136.000
726.34	136.700
726.67	136.100
727.00	135.150
727.33	135.350
727.66	135.950
727.99	136.850
728.32	135.100
728.65	136.900
728.98	136.950
729.31	136.000
729.64	135.900
729.97	134.550
730.30	135.850
730.63	136.100
730.96	135.950
731.29	134.300
731.62	135.400
731.95	137.950
732.28	137.350
732.61	136.500
732.94	136.700
733.27	136.000
733.60	135.650
733.93	134.700
734.25	135.750
734.58	136.450
734.91	136.400
735.24	137.150
735.57	137.200
735.90	136.650
736.23	135.700
736.56	136.150
736.89	135.850
737.22	136.750
737.55	136.650
737.87	135.750
738.20	135.250
738.53	136.150
738.86	135.500
739.19	135.750
739.52	138.200
739.85	136.400
740.17	135.950
740.50	135.250
740.83	136.100
741.16	136.300
741.49	137.400
741.82	136.450
742.14	136.550
742.47	135.850
742.80	136.250
743.13	135.150
743.46	136.050
743.78	136.650
744.11	136.200
744.44	135.300
744.77	136.700
745.10	135.500
745.42	136.400
745.75	136.000
746.08	137.000
746.41	136.800
746.73	136.700
747.06	136.600
747.39	136.550
747.72	135.650
748.04	135.450
748.37	136.900
748.70	135.950
749.02	136.250
749.35	136.750
749.68	135.750
750.01	136.650
750.33	137.650
750.66	137.000
750.99	137.050
751.31	135.500
751.64	135.000
751.97	135.750
752.29	138.350
752.62	136.500
752.95	136.200
753.27	136.100
753.60	136.400
753.93	136.300
754.25	136.250
754.58	135.250
754.91	136.500
755.23	136.950
755.56	140.150
755.88	137.450
756.21	137.100
756.54	135.850
756.86	135.700
757.19	134.950
757.51	135.500
757.84	135.800
758.17	135.850
758.49	135.550
758.82	135.500
759.14	135.500
759.47	136.500
759.79	135.900
760.12	136.000
760.44	135.250
760.77	136.350
761.09	135.900
761.42	137.250
761.75	137.800
762.07	136.100
762.40	135.250
762.72	135.700
763.05	136.150
763.37	136.650
763.70	135.800
764.02	136.850
764.35	137.050
764.67	136.400
764.99	136.450
765.32	134.800
765.64	135.450
765.97	135.500
766.29	136.950
766.62	134.850
766.94	136.300
767.27	136.950
767.59	135.550
767.91	135.300
768.24	136.950
768.56	135.900
768.89	136.500
769.21	135.050
769.54	136.350
769.86	136.200
770.18	135.200
770.51	134.450
770.83	135.400
771.15	135.850
771.48	136.550
771.80	135.400
772.13	136.000
772.45	134.900
772.77	135.450
773.10	135.600
773.42	137.150
773.74	135.550
774.07	136.150
774.39	136.450
774.71	135.850
775.04	137.450
775.36	136.300
775.68	135.950
776.01	135.100
776.33	136.150
776.65	136.950
776.97	134.750
777.30	135.800
777.62	135.200
777.94	136.750
778.26	135.250
778.59	135.400
778.91	134.950
779.23	135.900
779.55	135.300
779.88	136.250
780.20	135.150
780.52	134.250
780.84	134.500
781.17	136.100
781.49	136.200
781.81	135.450
782.13	135.900
782.45	136.250
782.78	135.900
783.10	136.350
783.42	136.900
783.74	135.450
784.06	135.900
784.39	135.000
784.71	136.200
785.03	136.300
785.35	136.500
785.67	135.550
785.99	134.250
786.31	136.100
786.64	135.950
786.96	135.950
787.28	135.400
787.60	135.550
787.92	135.800
788.24	135.650
788.56	134.600
788.88	135.700
789.20	138.850
789.53	137.050
789.85	136.400
790.17	135.550
790.49	135.350
790.81	135.000
