OOIBase32 Version 2.0.6.5 Data File
++++++++++++++++++++++++++++++++++++
Date: 04-23-2021, 12:05:17
User: Valued Ocean Optics Customer
Spectrometer Serial Number: USB2E5007
Spectrometer Channel: Master
Integration Time (msec): 45
Spectra Averaged: 20
Boxcar Smoothing: 0
Correct for Electrical Dark: Disabled
Time Normalized: Disabled
Dual-beam Reference: Disabled
Reference Channel: Master
Temperature: Not acquired
Spectrometer Type: S2000
ADC Type: USB2000
Number of Pixels in File: 2048
Graph Title: 
>>>>>Begin Spectral Data<<<<<
340.15	0.000
340.52	124.000
340.90	125.300
341.27	128.050
341.64	128.800
342.01	131.350
342.38	132.850
342.76	134.000
343.13	135.400
343.50	135.450
343.87	135.000
344.24	136.050
344.61	137.200
344.98	134.850
345.36	134.950
345.73	136.400
346.10	134.550
346.47	135.200
346.84	134.750
347.21	134.800
347.58	134.950
347.96	138.650
348.33	133.450
348.70	134.400
349.07	136.000
349.44	135.750
349.81	139.200
350.18	137.400
350.55	136.600
350.92	136.950
351.30	136.600
351.67	136.200
352.04	136.450
352.41	137.700
352.78	138.050
353.15	138.000
353.52	137.700
353.89	139.550
354.26	137.500
354.63	137.550
355.00	138.950
355.37	138.700
355.75	139.200
356.12	137.650
356.49	138.300
356.86	138.000
357.23	137.850
357.60	137.800
357.97	137.400
358.34	138.850
358.71	139.750
359.08	138.300
359.45	137.700
359.82	139.000
360.19	138.650
360.56	138.300
360.93	139.500
361.30	138.550
361.67	138.100
362.04	139.650
362.41	139.600
362.78	138.750
363.15	140.300
363.52	139.650
363.89	139.700
364.26	138.050
364.63	138.450
365.00	138.900
365.37	139.650
365.74	140.150
366.11	140.550
366.48	140.550
366.85	140.050
367.22	139.000
367.59	141.300
367.96	139.900
368.33	139.900
368.70	140.550
369.07	139.950
369.44	140.050
369.81	140.300
370.18	140.700
370.55	139.900
370.92	141.000
371.29	140.650
371.66	141.400
372.03	140.150
372.40	140.950
372.77	140.900
373.13	140.050
373.50	141.000
373.87	139.500
374.24	141.400
374.61	140.350
374.98	140.900
375.35	141.150
375.72	142.250
376.09	141.100
376.46	140.200
376.83	140.950
377.20	139.850
377.56	140.900
377.93	140.950
378.30	141.850
378.67	140.900
379.04	141.700
379.41	141.900
379.78	140.900
380.15	143.150
380.51	140.800
380.88	141.750
381.25	140.750
381.62	142.150
381.99	141.400
382.36	141.500
382.73	141.350
383.09	142.750
383.46	141.200
383.83	141.700
384.20	142.700
384.57	142.350
384.94	142.700
385.31	141.700
385.67	143.150
386.04	142.350
386.41	143.050
386.78	141.300
387.15	143.600
387.51	143.650
387.88	143.450
388.25	142.150
388.62	142.850
388.99	142.050
389.36	142.750
389.72	142.750
390.09	145.550
390.46	144.100
390.83	142.150
391.19	142.800
391.56	142.300
391.93	142.750
392.30	144.400
392.67	142.800
393.03	143.450
393.40	143.200
393.77	143.900
394.14	142.850
394.50	142.950
394.87	143.050
395.24	143.450
395.61	143.450
395.97	143.750
396.34	142.500
396.71	142.550
397.08	144.400
397.44	143.600
397.81	143.500
398.18	143.600
398.55	143.100
398.91	143.450
399.28	144.900
399.65	144.750
400.01	144.650
400.38	144.450
400.75	143.600
401.12	143.300
401.48	143.000
401.85	145.150
402.22	143.450
402.58	143.500
402.95	145.750
403.32	144.250
403.68	143.650
404.05	144.400
404.42	144.300
404.78	145.300
405.15	145.500
405.52	144.700
405.88	144.950
406.25	144.000
406.62	143.700
406.98	144.650
407.35	145.150
407.72	144.950
408.08	145.450
408.45	145.900
408.82	145.500
409.18	145.750
409.55	146.450
409.91	145.200
410.28	145.450
410.65	145.550
411.01	145.900
411.38	144.300
411.75	145.200
412.11	146.200
412.48	146.950
412.84	147.950
413.21	146.150
413.58	146.600
413.94	147.350
414.31	146.850
414.67	147.450
415.04	147.600
415.41	147.100
415.77	149.000
416.14	149.200
416.50	148.850
416.87	149.200
417.23	149.550
417.60	151.750
417.97	150.150
418.33	152.200
418.70	151.750
419.06	153.050
419.43	152.700
419.79	153.800
420.16	153.100
420.52	157.150
420.89	158.000
421.25	158.450
421.62	158.900
421.98	159.500
422.35	159.800
422.72	159.450
423.08	162.150
423.45	165.950
423.81	165.400
424.18	168.550
424.54	167.850
424.91	170.200
425.27	174.800
425.64	176.700
426.00	179.400
426.37	180.600
426.73	182.050
427.09	187.300
427.46	190.500
427.82	194.400
428.19	194.900
428.55	200.250
428.92	204.500
429.28	211.650
429.65	217.000
430.01	227.650
430.38	227.100
430.74	228.550
431.11	235.400
431.47	252.400
431.83	249.900
432.20	263.350
432.56	270.300
432.93	283.900
433.29	287.850
433.66	295.500
434.02	318.000
434.38	311.200
434.75	335.500
435.11	336.700
435.48	356.400
435.84	362.000
436.20	389.550
436.57	394.350
436.93	415.500
437.30	442.400
437.66	438.200
438.02	489.750
438.39	505.600
438.75	522.950
439.12	570.100
439.48	587.050
439.84	605.450
440.21	635.750
440.57	656.500
440.93	752.250
441.30	763.650
441.66	780.750
442.02	841.250
442.39	854.100
442.75	906.900
443.11	937.850
443.48	997.450
443.84	1052.400
444.20	1069.000
444.57	1217.000
444.93	1260.450
445.29	1374.100
445.66	1371.900
446.02	1462.450
446.38	1608.000
446.75	1658.650
447.11	1754.750
447.47	1742.850
447.84	1845.000
448.20	2017.650
448.56	2148.300
448.92	2236.300
449.29	2278.500
449.65	2344.850
450.01	2472.250
450.37	2458.600
450.74	2618.400
451.10	2749.300
451.46	2871.350
451.83	2784.400
452.19	2885.950
452.55	2820.650
452.91	3040.850
453.28	3129.750
453.64	3225.600
454.00	3244.850
454.36	3000.550
454.72	3272.350
455.09	3179.900
455.45	3263.200
455.81	3208.550
456.17	3136.900
456.54	3149.200
456.90	3152.600
457.26	2969.700
457.62	3005.350
457.98	3009.200
458.35	2995.750
458.71	2812.500
459.07	2788.800
459.43	2643.700
459.79	2632.700
460.16	2466.100
460.52	2404.100
460.88	2386.150
461.24	2375.300
461.60	2315.250
461.96	2322.500
462.33	2197.800
462.69	2105.550
463.05	2031.000
463.41	2034.350
463.77	1963.550
464.13	1861.500
464.49	1895.800
464.86	1825.650
465.22	1772.050
465.58	1743.900
465.94	1761.250
466.30	1674.150
466.66	1706.850
467.02	1687.900
467.38	1622.150
467.75	1585.300
468.11	1539.700
468.47	1512.150
468.83	1507.350
469.19	1491.600
469.55	1475.400
469.91	1407.400
470.27	1321.950
470.63	1357.750
470.99	1335.300
471.35	1270.200
471.72	1272.400
472.08	1252.100
472.44	1201.450
472.80	1152.350
473.16	1154.150
473.52	1100.050
473.88	1074.550
474.24	1046.350
474.60	1029.500
474.96	999.700
475.32	971.350
475.68	933.850
476.04	917.000
476.40	882.700
476.76	868.500
477.12	834.250
477.48	817.500
477.84	802.200
478.20	780.450
478.56	756.150
478.92	736.550
479.28	718.850
479.64	705.300
480.00	697.300
480.36	685.950
480.72	660.250
481.08	651.100
481.44	636.650
481.80	626.000
482.16	609.550
482.52	599.750
482.88	587.500
483.24	581.950
483.60	573.350
483.96	558.100
484.32	551.300
484.68	537.750
485.04	531.150
485.40	521.850
485.76	510.550
486.12	502.500
486.48	492.550
486.83	484.750
487.19	472.500
487.55	466.050
487.91	461.050
488.27	447.100
488.63	440.500
488.99	429.200
489.35	420.850
489.71	412.250
490.07	402.450
490.43	391.350
490.78	383.850
491.14	374.900
491.50	365.150
491.86	358.250
492.22	348.750
492.58	340.650
492.94	333.400
493.30	325.800
493.65	316.400
494.01	313.600
494.37	305.000
494.73	298.000
495.09	293.500
495.45	286.750
495.80	283.250
496.16	276.600
496.52	270.800
496.88	267.500
497.24	261.200
497.60	257.250
497.95	252.700
498.31	248.300
498.67	243.950
499.03	242.300
499.39	236.650
499.74	233.050
500.10	230.950
500.46	226.650
500.82	226.100
501.18	222.150
501.53	217.200
501.89	216.600
502.25	214.350
502.61	210.400
502.96	210.050
503.32	207.250
503.68	209.150
504.04	202.750
504.40	199.500
504.75	199.200
505.11	198.000
505.47	194.750
505.82	195.400
506.18	191.650
506.54	189.850
506.90	190.500
507.25	188.350
507.61	187.700
507.97	185.000
508.33	181.700
508.68	182.800
509.04	180.150
509.40	180.650
509.75	176.500
510.11	177.900
510.47	177.200
510.82	173.700
511.18	172.200
511.54	170.650
511.89	172.600
512.25	170.250
512.61	169.600
512.96	169.650
513.32	166.800
513.68	166.850
514.03	165.950
514.39	165.300
514.75	164.050
515.10	166.600
515.46	163.750
515.82	160.650
516.17	162.000
516.53	162.650
516.89	161.350
517.24	159.450
517.60	159.400
517.95	159.350
518.31	159.000
518.67	158.750
519.02	158.500
519.38	157.350
519.73	156.400
520.09	155.400
520.45	155.200
520.80	154.900
521.16	155.600
521.51	153.950
521.87	152.650
522.22	151.900
522.58	153.050
522.94	152.800
523.29	151.650
523.65	152.050
524.00	153.600
524.36	152.050
524.71	151.900
525.07	150.700
525.42	150.650
525.78	150.650
526.14	150.400
526.49	149.900
526.85	149.850
527.20	149.750
527.56	149.850
527.91	149.850
528.27	148.600
528.62	148.600
528.98	148.000
529.33	148.200
529.69	148.250
530.04	148.750
530.40	146.650
530.75	147.150
531.11	148.050
531.46	148.850
531.81	146.050
532.17	147.850
532.52	147.000
532.88	146.200
533.23	146.450
533.59	148.150
533.94	147.500
534.30	146.650
534.65	145.200
535.01	145.900
535.36	148.200
535.71	147.300
536.07	146.500
536.42	148.100
536.78	147.500
537.13	146.950
537.48	147.500
537.84	147.650
538.19	150.400
538.55	151.150
538.90	153.150
539.25	156.600
539.61	159.800
539.96	160.550
540.32	160.000
540.67	158.200
541.02	157.750
541.38	156.850
541.73	156.150
542.08	154.850
542.44	155.450
542.79	154.950
543.15	154.850
543.50	161.400
543.85	165.200
544.21	167.050
544.56	165.500
544.91	159.800
545.27	155.250
545.62	152.900
545.97	152.800
546.32	151.500
546.68	150.500
547.03	148.500
547.38	149.950
547.74	148.500
548.09	147.800
548.44	147.250
548.80	147.350
549.15	145.750
549.50	143.900
549.85	146.700
550.21	145.500
550.56	145.100
550.91	144.500
551.26	143.900
551.62	143.300
551.97	142.950
552.32	143.050
552.67	142.750
553.03	142.800
553.38	142.450
553.73	141.850
554.08	143.250
554.44	141.750
554.79	142.650
555.14	143.350
555.49	141.250
555.85	142.750
556.20	142.650
556.55	141.950
556.90	140.450
557.25	139.850
557.61	142.300
557.96	142.750
558.31	141.750
558.66	141.200
559.01	141.000
559.36	141.100
559.72	141.450
560.07	141.850
560.42	141.100
560.77	141.550
561.12	141.100
561.47	141.400
561.83	141.300
562.18	140.400
562.53	140.950
562.88	141.250
563.23	142.050
563.58	140.950
563.93	140.650
564.28	142.200
564.64	140.350
564.99	139.900
565.34	140.700
565.69	142.450
566.04	141.150
566.39	140.950
566.74	140.650
567.09	141.900
567.44	142.150
567.79	140.500
568.14	140.550
568.50	141.450
568.85	140.850
569.20	140.200
569.55	140.300
569.90	140.550
570.25	140.700
570.60	140.500
570.95	140.100
571.30	140.150
571.65	140.150
572.00	140.350
572.35	141.550
572.70	140.750
573.05	140.100
573.40	140.400
573.75	140.400
574.10	140.050
574.45	140.850
574.80	141.800
575.15	141.600
575.50	141.750
575.85	141.000
576.20	142.250
576.55	142.600
576.90	143.350
577.25	142.650
577.60	141.850
577.95	142.600
578.30	143.300
578.65	142.800
579.00	143.150
579.35	143.950
579.70	142.200
580.05	141.050
580.40	141.400
580.74	143.400
581.09	143.000
581.44	141.950
581.79	144.350
582.14	143.600
582.49	144.650
582.84	143.750
583.19	141.500
583.54	142.000
583.89	141.800
584.24	141.800
584.58	142.250
584.93	142.250
585.28	142.750
585.63	144.450
585.98	144.200
586.33	142.850
586.68	141.650
587.03	142.400
587.37	142.100
587.72	141.450
588.07	140.650
588.42	141.200
588.77	139.400
589.12	141.600
589.46	142.100
589.81	141.600
590.16	141.000
590.51	141.250
590.86	141.900
591.21	141.800
591.55	143.250
591.90	142.150
592.25	141.600
592.60	141.100
592.95	141.050
593.29	140.800
593.64	140.350
593.99	141.000
594.34	140.350
594.68	141.450
595.03	140.450
595.38	141.000
595.73	141.350
596.07	140.150
596.42	139.500
596.77	140.150
597.12	140.350
597.46	140.400
597.81	140.550
598.16	139.250
598.51	141.500
598.85	141.300
599.20	139.200
599.55	139.900
599.90	140.400
600.24	139.450
600.59	139.250
600.94	139.250
601.28	140.350
601.63	140.800
601.98	139.300
602.32	138.850
602.67	139.750
603.02	140.600
603.36	139.600
603.71	140.050
604.06	140.450
604.40	139.850
604.75	140.400
605.10	140.400
605.44	140.900
605.79	139.600
606.14	141.100
606.48	141.500
606.83	140.200
607.17	141.250
607.52	141.600
607.87	143.150
608.21	144.850
608.56	147.400
608.90	157.000
609.25	161.700
609.60	163.800
609.94	160.300
610.29	157.300
610.63	152.950
610.98	150.100
611.33	148.950
611.67	149.600
612.02	147.500
612.36	146.750
612.71	145.400
613.05	145.750
613.40	145.150
613.74	144.850
614.09	143.100
614.44	140.950
614.78	140.050
615.13	141.850
615.47	141.700
615.82	141.900
616.16	140.850
616.51	142.050
616.85	140.000
617.20	139.900
617.54	141.500
617.89	140.600
618.23	140.650
618.58	140.600
618.92	139.550
619.27	140.000
619.61	139.700
619.96	141.300
620.30	141.850
620.64	141.250
620.99	142.450
621.33	141.350
621.68	141.700
622.02	141.400
622.37	140.600
622.71	140.450
623.06	141.350
623.40	140.500
623.74	141.250
624.09	142.450
624.43	141.600
624.78	139.900
625.12	139.700
625.46	140.950
625.81	140.550
626.15	139.750
626.50	140.700
626.84	140.750
627.18	141.950
627.53	140.150
627.87	140.700
628.21	140.800
628.56	140.650
628.90	141.950
629.25	139.800
629.59	140.850
629.93	140.450
630.28	140.250
630.62	139.450
630.96	140.050
631.31	139.850
631.65	139.550
631.99	140.200
632.34	138.150
632.68	138.300
633.02	136.800
633.36	139.450
633.71	137.850
634.05	139.950
634.39	138.050
634.74	137.800
635.08	138.600
635.42	137.850
635.76	139.650
636.11	138.400
636.45	140.650
636.79	139.250
637.14	138.650
637.48	138.750
637.82	136.700
638.16	137.700
638.50	137.450
638.85	138.200
639.19	139.950
639.53	139.250
639.87	138.050
640.22	138.900
640.56	137.700
640.90	138.050
641.24	138.400
641.58	139.000
641.93	138.200
642.27	139.000
642.61	139.600
642.95	139.450
643.29	138.850
643.64	138.150
643.98	138.450
644.32	138.250
644.66	137.750
645.00	138.400
645.34	139.250
645.68	138.400
646.03	139.400
646.37	138.950
646.71	139.700
647.05	139.850
647.39	137.800
647.73	139.450
648.07	139.250
648.42	139.900
648.76	139.550
649.10	139.300
649.44	140.150
649.78	138.200
650.12	140.350
650.46	138.550
650.80	138.850
651.14	141.250
651.48	139.350
651.82	139.050
652.16	139.800
652.51	138.650
652.85	137.150
653.19	138.100
653.53	139.300
653.87	138.100
654.21	137.850
654.55	138.300
654.89	138.900
655.23	139.450
655.57	138.600
655.91	138.800
656.25	139.750
656.59	138.150
656.93	137.800
657.27	137.150
657.61	139.600
657.95	138.750
658.29	137.600
658.63	137.900
658.97	139.700
659.31	139.900
659.65	138.200
659.99	139.750
660.33	139.750
660.67	138.250
661.01	139.050
661.35	138.250
661.68	139.450
662.02	139.300
662.36	137.700
662.70	137.300
663.04	137.300
663.38	138.000
663.72	138.050
664.06	138.350
664.40	137.450
664.74	138.850
665.08	139.300
665.42	138.250
665.75	137.450
666.09	136.650
666.43	141.350
666.77	139.700
667.11	138.250
667.45	138.650
667.79	139.000
668.12	138.100
668.46	138.350
668.80	139.050
669.14	138.250
669.48	138.750
669.82	139.150
670.16	139.800
670.49	138.600
670.83	138.400
671.17	137.850
671.51	138.100
671.85	138.150
672.18	137.950
672.52	138.050
672.86	138.200
673.20	138.200
673.54	138.250
673.87	137.750
674.21	139.350
674.55	138.800
674.89	139.400
675.22	139.150
675.56	139.800
675.90	138.400
676.24	139.800
676.57	138.000
676.91	139.150
677.25	137.800
677.59	137.250
677.92	137.500
678.26	137.150
678.60	137.700
678.93	138.100
679.27	138.750
679.61	137.750
679.95	137.450
680.28	139.000
680.62	137.900
680.96	138.350
681.29	138.250
681.63	139.300
681.97	135.700
682.30	137.550
682.64	138.500
682.98	138.250
683.31	138.750
683.65	138.750
683.99	137.150
684.32	138.800
684.66	137.550
685.00	138.350
685.33	139.250
685.67	138.400
686.00	138.150
686.34	137.000
686.68	140.350
687.01	136.900
687.35	136.700
687.68	139.350
688.02	137.900
688.36	137.900
688.69	138.250
689.03	138.400
689.36	138.250
689.70	137.950
690.03	138.300
690.37	137.100
690.71	137.600
691.04	138.700
691.38	138.400
691.71	138.500
692.05	137.500
692.38	137.900
692.72	137.300
693.05	138.400
693.39	138.150
693.72	138.500
694.06	137.250
694.39	137.500
694.73	136.900
695.06	136.900
695.40	136.650
695.73	137.300
696.07	138.550
696.40	138.800
696.74	138.650
697.07	139.150
697.41	136.700
697.74	138.700
698.08	137.700
698.41	137.950
698.74	138.300
699.08	137.050
699.41	137.800
699.75	138.600
700.08	137.350
700.42	137.400
700.75	137.350
701.08	137.050
701.42	137.800
701.75	138.050
702.09	139.400
702.42	140.500
702.75	137.800
703.09	137.450
703.42	138.250
703.75	137.250
704.09	138.050
704.42	137.400
704.76	138.750
705.09	138.100
705.42	138.200
705.76	138.850
706.09	138.450
706.42	140.350
706.76	138.700
707.09	138.200
707.42	137.900
707.76	139.250
708.09	137.900
708.42	136.900
708.75	139.250
709.09	137.500
709.42	137.350
709.75	137.100
710.09	139.200
710.42	137.700
710.75	136.900
711.08	138.450
711.42	138.750
711.75	138.950
712.08	137.800
712.41	137.450
712.75	137.600
713.08	137.950
713.41	136.850
713.74	138.250
714.08	137.700
714.41	137.300
714.74	137.100
715.07	139.150
715.41	138.050
715.74	138.550
716.07	137.500
716.40	137.300
716.73	137.300
717.06	137.000
717.40	137.650
717.73	136.600
718.06	138.700
718.39	138.100
718.72	137.650
719.05	136.900
719.39	137.750
719.72	138.300
720.05	138.700
720.38	138.250
720.71	137.500
721.04	137.500
721.37	137.150
721.71	137.800
722.04	137.600
722.37	137.750
722.70	138.200
723.03	138.650
723.36	136.950
723.69	137.000
724.02	136.950
724.35	137.150
724.68	138.550
725.01	137.700
725.35	138.050
725.68	137.950
726.01	138.250
726.34	138.450
726.67	135.950
727.00	137.750
727.33	138.200
727.66	137.950
727.99	138.400
728.32	137.500
728.65	137.450
728.98	137.350
729.31	138.100
729.64	138.250
729.97	137.300
730.30	137.350
730.63	138.350
730.96	137.350
731.29	137.200
731.62	138.250
731.95	138.800
732.28	139.300
732.61	139.350
732.94	137.900
733.27	138.500
733.60	137.850
733.93	136.900
734.25	137.100
734.58	137.250
734.91	137.950
735.24	136.750
735.57	138.750
735.90	137.100
736.23	138.550
736.56	137.950
736.89	136.150
737.22	137.800
737.55	137.850
737.87	138.350
738.20	137.150
738.53	137.700
738.86	137.600
739.19	137.300
739.52	139.500
739.85	137.850
740.17	137.550
740.50	137.700
740.83	137.000
741.16	136.800
741.49	138.300
741.82	137.400
742.14	137.100
742.47	137.300
742.80	137.450
743.13	137.200
743.46	137.800
743.78	138.050
744.11	136.950
744.44	138.550
744.77	137.800
745.10	138.100
745.42	138.600
745.75	137.350
746.08	136.850
746.41	137.800
746.73	138.000
747.06	139.550
747.39	137.550
747.72	136.300
748.04	138.250
748.37	138.350
748.70	138.000
749.02	137.850
749.35	137.600
749.68	137.650
750.01	137.900
750.33	139.200
750.66	137.600
750.99	139.250
751.31	136.400
751.64	135.000
751.97	137.250
752.29	139.200
752.62	136.650
752.95	137.550
753.27	137.250
753.60	138.050
753.93	137.150
754.25	136.400
754.58	137.250
754.91	136.850
755.23	138.800
755.56	140.500
755.88	138.850
756.21	138.050
756.54	138.250
756.86	137.500
757.19	137.300
757.51	137.350
757.84	138.250
758.17	137.450
758.49	136.950
758.82	137.650
759.14	137.950
759.47	137.050
759.79	136.650
760.12	137.000
760.44	137.700
760.77	138.500
761.09	137.350
761.42	137.900
761.75	138.300
762.07	137.000
762.40	137.550
762.72	137.450
763.05	136.650
763.37	136.750
763.70	136.400
764.02	138.800
764.35	136.350
764.67	137.050
764.99	137.900
765.32	136.900
765.64	137.500
765.97	136.900
766.29	137.800
766.62	137.450
766.94	137.800
767.27	137.300
767.59	137.400
767.91	137.450
768.24	138.250
768.56	137.300
768.89	138.650
769.21	136.900
769.54	136.950
769.86	137.800
770.18	136.150
770.51	137.550
770.83	137.250
771.15	137.600
771.48	138.050
771.80	137.050
772.13	137.350
772.45	137.950
772.77	138.050
773.10	137.500
773.42	137.250
773.74	137.900
774.07	137.250
774.39	137.000
774.71	136.600
775.04	138.200
775.36	136.300
775.68	136.900
776.01	136.550
776.33	136.500
776.65	136.900
776.97	135.700
777.30	139.350
777.62	136.950
777.94	137.650
778.26	137.250
778.59	135.200
778.91	135.400
779.23	137.650
779.55	137.750
779.88	137.600
780.20	137.750
780.52	136.900
780.84	136.650
781.17	137.200
781.49	137.350
781.81	137.200
782.13	138.300
782.45	138.950
782.78	136.500
783.10	137.550
783.42	138.300
783.74	137.300
784.06	137.600
784.39	136.800
784.71	138.500
785.03	138.000
785.35	139.100
785.67	138.150
785.99	136.100
786.31	137.250
786.64	137.200
786.96	138.100
787.28	137.450
787.60	136.350
787.92	138.450
788.24	138.050
788.56	136.250
788.88	137.200
789.20	141.800
789.53	138.300
789.85	137.150
790.17	137.100
790.49	137.100
