OOIBase32 Version 2.0.6.5 Data File
++++++++++++++++++++++++++++++++++++
Date: 04-23-2021, 12:07:17
User: Valued Ocean Optics Customer
Spectrometer Serial Number: USB2E5007
Spectrometer Channel: Master
Integration Time (msec): 45
Spectra Averaged: 20
Boxcar Smoothing: 0
Correct for Electrical Dark: Disabled
Time Normalized: Disabled
Dual-beam Reference: Disabled
Reference Channel: Master
Temperature: Not acquired
Spectrometer Type: S2000
ADC Type: USB2000
Number of Pixels in File: 2048
Graph Title: 
>>>>>Begin Spectral Data<<<<<
340.15	0.000
340.52	121.350
340.90	123.100
341.27	125.050
341.64	126.650
342.01	129.550
342.38	130.800
342.76	132.450
343.13	134.600
343.50	133.100
343.87	133.000
344.24	133.400
344.61	134.250
344.98	133.600
345.36	133.100
345.73	134.100
346.10	132.200
346.47	133.700
346.84	133.300
347.21	131.700
347.58	133.450
347.96	136.750
348.33	133.200
348.70	132.600
349.07	132.850
349.44	132.850
349.81	135.650
350.18	134.000
350.55	133.800
350.92	133.300
351.30	133.300
351.67	133.000
352.04	132.900
352.41	133.200
352.78	134.400
353.15	134.750
353.52	134.050
353.89	136.100
354.26	133.700
354.63	132.850
355.00	134.350
355.37	134.650
355.75	134.500
356.12	133.450
356.49	135.650
356.86	135.300
357.23	135.350
357.60	134.550
357.97	133.800
358.34	134.150
358.71	135.550
359.08	134.900
359.45	134.150
359.82	134.450
360.19	135.950
360.56	135.150
360.93	134.950
361.30	135.450
361.67	134.750
362.04	137.600
362.41	136.650
362.78	134.900
363.15	136.350
363.52	135.350
363.89	135.600
364.26	134.850
364.63	134.500
365.00	136.400
365.37	136.400
365.74	136.200
366.11	137.450
366.48	137.250
366.85	135.100
367.22	134.750
367.59	137.050
367.96	135.400
368.33	136.200
368.70	137.650
369.07	137.100
369.44	137.000
369.81	136.800
370.18	137.350
370.55	134.500
370.92	136.400
371.29	136.050
371.66	137.900
372.03	136.550
372.40	137.050
372.77	136.650
373.13	136.050
373.50	137.500
373.87	135.600
374.24	136.600
374.61	137.400
374.98	137.350
375.35	136.700
375.72	137.150
376.09	136.150
376.46	137.150
376.83	136.700
377.20	136.400
377.56	137.200
377.93	136.150
378.30	137.350
378.67	137.000
379.04	137.450
379.41	137.800
379.78	138.400
380.15	138.850
380.51	136.650
380.88	136.750
381.25	137.650
381.62	137.850
381.99	137.550
382.36	137.250
382.73	136.950
383.09	138.300
383.46	137.400
383.83	137.400
384.20	138.250
384.57	139.300
384.94	138.300
385.31	137.500
385.67	138.250
386.04	136.750
386.41	137.100
386.78	136.650
387.15	139.400
387.51	139.650
387.88	138.550
388.25	137.550
388.62	138.200
388.99	138.900
389.36	139.500
389.72	138.600
390.09	140.450
390.46	139.300
390.83	138.650
391.19	138.350
391.56	138.300
391.93	138.400
392.30	139.200
392.67	139.300
393.03	137.650
393.40	139.100
393.77	139.100
394.14	138.950
394.50	139.350
394.87	139.050
395.24	137.900
395.61	138.450
395.97	138.900
396.34	139.250
396.71	139.100
397.08	140.650
397.44	138.300
397.81	139.000
398.18	139.850
398.55	139.050
398.91	139.050
399.28	139.250
399.65	140.450
400.01	141.200
400.38	139.450
400.75	139.150
401.12	139.200
401.48	138.900
401.85	139.950
402.22	140.350
402.58	139.300
402.95	140.050
403.32	139.400
403.68	139.100
404.05	138.850
404.42	138.500
404.78	139.050
405.15	139.650
405.52	138.400
405.88	139.150
406.25	139.100
406.62	137.850
406.98	139.600
407.35	139.350
407.72	139.200
408.08	139.400
408.45	139.750
408.82	140.000
409.18	139.050
409.55	140.750
409.91	140.550
410.28	139.000
410.65	139.000
411.01	139.300
411.38	138.350
411.75	139.250
412.11	139.600
412.48	140.200
412.84	141.850
413.21	139.750
413.58	140.350
413.94	141.300
414.31	140.800
414.67	140.600
415.04	140.300
415.41	139.500
415.77	139.500
416.14	140.550
416.50	140.300
416.87	141.100
417.23	140.650
417.60	140.900
417.97	140.100
418.33	141.000
418.70	141.350
419.06	142.100
419.43	141.350
419.79	142.700
420.16	141.750
420.52	141.700
420.89	141.900
421.25	141.550
421.62	142.100
421.98	142.350
422.35	142.950
422.72	142.950
423.08	143.100
423.45	144.050
423.81	143.500
424.18	145.550
424.54	142.850
424.91	144.000
425.27	145.750
425.64	146.000
426.00	147.250
426.37	148.550
426.73	147.400
427.09	148.700
427.46	149.600
427.82	151.100
428.19	150.750
428.55	151.750
428.92	153.200
429.28	153.000
429.65	153.650
430.01	157.500
430.38	156.400
430.74	156.900
431.11	160.350
431.47	162.850
431.83	164.400
432.20	166.400
432.56	167.650
432.93	169.150
433.29	172.100
433.66	175.950
434.02	183.400
434.38	179.550
434.75	182.100
435.11	181.800
435.48	185.450
435.84	186.150
436.20	194.000
436.57	194.800
436.93	199.400
437.30	206.100
437.66	207.200
438.02	218.550
438.39	220.950
438.75	223.200
439.12	235.550
439.48	239.250
439.84	245.350
440.21	251.050
440.57	256.800
440.93	277.100
441.30	279.450
441.66	285.200
442.02	301.250
442.39	302.400
442.75	313.550
443.11	322.250
443.48	338.650
443.84	349.400
444.20	355.250
444.57	390.850
444.93	403.200
445.29	433.300
445.66	432.850
446.02	455.750
446.38	494.000
446.75	508.100
447.11	533.650
447.47	534.700
447.84	560.050
448.20	608.050
448.56	644.700
448.92	672.700
449.29	690.600
449.65	710.800
450.01	742.550
450.37	749.400
450.74	790.100
451.10	831.850
451.46	871.200
451.83	849.600
452.19	888.300
452.55	869.750
452.91	934.800
453.28	967.500
453.64	997.350
454.00	1010.950
454.36	935.750
454.72	1019.600
455.09	991.200
455.45	1022.750
455.81	1001.450
456.17	982.950
456.54	986.350
456.90	989.650
457.26	932.450
457.62	943.150
457.98	941.350
458.35	935.400
458.71	879.150
459.07	873.650
459.43	825.900
459.79	820.600
460.16	765.300
460.52	751.500
460.88	742.600
461.24	737.950
461.60	718.700
461.96	720.750
462.33	681.450
462.69	654.400
463.05	632.250
463.41	639.200
463.77	616.100
464.13	588.350
464.49	599.650
464.86	577.250
465.22	563.450
465.58	557.950
465.94	562.350
466.30	542.800
466.66	548.000
467.02	544.700
467.38	526.850
467.75	519.400
468.11	508.050
468.47	503.300
468.83	500.650
469.19	495.650
469.55	492.300
469.91	478.650
470.27	454.650
470.63	462.750
470.99	458.400
471.35	442.000
471.72	440.600
472.08	435.350
472.44	420.950
472.80	407.250
473.16	408.800
473.52	399.350
473.88	389.250
474.24	381.850
474.60	373.000
474.96	365.250
475.32	355.550
475.68	346.550
476.04	346.100
476.40	334.150
476.76	329.550
477.12	320.800
477.48	313.950
477.84	311.550
478.20	305.650
478.56	299.400
478.92	293.350
479.28	289.350
479.64	284.850
480.00	283.100
480.36	280.000
480.72	273.450
481.08	271.600
481.44	269.800
481.80	263.100
482.16	261.950
482.52	259.100
482.88	256.150
483.24	252.500
483.60	253.000
483.96	247.900
484.32	245.750
484.68	243.400
485.04	241.800
485.40	240.400
485.76	236.050
486.12	237.100
486.48	233.100
486.83	228.950
487.19	228.150
487.55	224.400
487.91	221.350
488.27	219.500
488.63	220.950
488.99	215.500
489.35	214.550
489.71	210.800
490.07	207.550
490.43	205.000
490.78	202.150
491.14	201.800
491.50	199.400
491.86	197.400
492.22	193.000
492.58	190.750
492.94	189.750
493.30	187.350
493.65	185.450
494.01	183.650
494.37	183.300
494.73	179.650
495.09	177.450
495.45	176.200
495.80	176.050
496.16	174.150
496.52	172.050
496.88	169.650
497.24	169.150
497.60	170.450
497.95	166.700
498.31	164.700
498.67	164.850
499.03	164.400
499.39	162.900
499.74	161.500
500.10	161.400
500.46	161.050
500.82	159.650
501.18	160.250
501.53	155.850
501.89	157.000
502.25	156.500
502.61	155.150
502.96	156.350
503.32	155.100
503.68	157.050
504.04	154.850
504.40	153.850
504.75	153.000
505.11	151.850
505.47	152.550
505.82	153.250
506.18	151.600
506.54	150.250
506.90	150.550
507.25	149.900
507.61	149.300
507.97	149.850
508.33	148.150
508.68	149.000
509.04	148.900
509.40	147.900
509.75	146.400
510.11	149.150
510.47	148.250
510.82	146.300
511.18	144.750
511.54	145.600
511.89	146.850
512.25	145.200
512.61	144.400
512.96	144.800
513.32	143.800
513.68	144.300
514.03	144.350
514.39	144.950
514.75	144.000
515.10	145.700
515.46	144.900
515.82	142.900
516.17	143.300
516.53	143.450
516.89	143.350
517.24	142.000
517.60	141.350
517.95	142.300
518.31	141.800
518.67	143.450
519.02	143.300
519.38	141.900
519.73	140.850
520.09	140.200
520.45	140.650
520.80	141.050
521.16	141.200
521.51	141.100
521.87	140.800
522.22	139.150
522.58	140.500
522.94	140.800
523.29	140.600
523.65	139.050
524.00	142.500
524.36	141.500
524.71	140.550
525.07	139.150
525.42	139.350
525.78	139.050
526.14	139.200
526.49	139.600
526.85	139.650
527.20	139.850
527.56	141.200
527.91	139.900
528.27	139.900
528.62	139.550
528.98	138.700
529.33	139.900
529.69	138.800
530.04	139.150
530.40	140.350
530.75	140.650
531.11	139.500
531.46	140.300
531.81	139.800
532.17	140.200
532.52	138.650
532.88	138.200
533.23	139.350
533.59	140.800
533.94	139.350
534.30	137.400
534.65	138.500
535.01	140.400
535.36	141.100
535.71	138.450
536.07	139.650
536.42	141.400
536.78	140.300
537.13	141.050
537.48	142.700
537.84	142.300
538.19	143.900
538.55	144.450
538.90	147.900
539.25	150.700
539.61	152.500
539.96	155.900
540.32	156.300
540.67	151.750
541.02	151.300
541.38	150.800
541.73	150.050
542.08	149.800
542.44	151.400
542.79	149.900
543.15	149.050
543.50	154.750
543.85	159.900
544.21	161.550
544.56	159.450
544.91	155.750
545.27	150.150
545.62	148.200
545.97	148.150
546.32	147.050
546.68	144.700
547.03	143.650
547.38	145.250
547.74	143.000
548.09	142.300
548.44	141.300
548.80	142.900
549.15	141.300
549.50	139.850
549.85	141.550
550.21	141.550
550.56	141.300
550.91	140.350
551.26	139.200
551.62	139.850
551.97	139.050
552.32	139.500
552.67	138.500
553.03	138.100
553.38	138.900
553.73	137.700
554.08	138.200
554.44	137.300
554.79	138.350
555.14	138.200
555.49	138.500
555.85	137.750
556.20	136.750
556.55	137.750
556.90	136.150
557.25	136.450
557.61	136.950
557.96	138.250
558.31	136.900
558.66	137.550
559.01	138.350
559.36	137.700
559.72	136.400
560.07	136.700
560.42	136.750
560.77	138.150
561.12	137.750
561.47	137.450
561.83	136.750
562.18	136.900
562.53	136.650
562.88	136.900
563.23	138.850
563.58	137.900
563.93	136.800
564.28	140.050
564.64	136.850
564.99	137.500
565.34	135.750
565.69	138.650
566.04	137.250
566.39	136.600
566.74	137.150
567.09	137.500
567.44	137.350
567.79	136.500
568.14	136.750
568.50	135.200
568.85	136.400
569.20	136.450
569.55	135.500
569.90	136.150
570.25	135.950
570.60	136.350
570.95	136.800
571.30	137.250
571.65	136.950
572.00	135.150
572.35	137.250
572.70	136.600
573.05	135.700
573.40	136.450
573.75	135.250
574.10	136.250
574.45	137.100
574.80	136.500
575.15	138.700
575.50	139.700
575.85	137.900
576.20	136.900
576.55	137.050
576.90	139.250
577.25	138.000
577.60	137.750
577.95	139.150
578.30	139.000
578.65	138.700
579.00	138.550
579.35	139.650
579.70	138.850
580.05	137.300
580.40	139.100
580.74	140.300
581.09	139.450
581.44	139.700
581.79	140.200
582.14	139.050
582.49	140.350
582.84	140.050
583.19	139.050
583.54	139.800
583.89	139.050
584.24	138.100
584.58	138.650
584.93	139.150
585.28	140.000
585.63	140.050
585.98	140.400
586.33	138.550
586.68	138.000
587.03	138.100
587.37	137.600
587.72	137.750
588.07	136.850
588.42	139.200
588.77	137.800
589.12	137.650
589.46	138.000
589.81	139.850
590.16	137.150
590.51	137.600
590.86	137.900
591.21	137.450
591.55	138.700
591.90	136.950
592.25	139.450
592.60	137.000
592.95	137.350
593.29	136.050
593.64	136.650
593.99	137.900
594.34	137.350
594.68	137.850
595.03	138.650
595.38	137.650
595.73	136.500
596.07	136.400
596.42	136.850
596.77	137.150
597.12	137.900
597.46	136.400
597.81	136.150
598.16	136.800
598.51	138.000
598.85	136.650
599.20	135.800
599.55	136.700
599.90	136.500
600.24	135.800
600.59	136.700
600.94	136.500
601.28	136.150
601.63	135.250
601.98	134.550
602.32	136.150
602.67	137.750
603.02	137.350
603.36	137.200
603.71	136.400
604.06	137.300
604.40	136.450
604.75	138.200
605.10	137.350
605.44	139.450
605.79	137.000
606.14	136.900
606.48	138.100
606.83	136.900
607.17	137.550
607.52	139.500
607.87	140.400
608.21	142.300
608.56	144.850
608.90	153.200
609.25	158.750
609.60	159.600
609.94	156.500
610.29	155.100
610.63	149.700
610.98	148.200
611.33	147.150
611.67	145.050
612.02	144.400
612.36	143.000
612.71	142.950
613.05	143.150
613.40	141.050
613.74	140.850
614.09	140.600
614.44	138.450
614.78	137.250
615.13	137.050
615.47	137.050
615.82	138.550
616.16	137.000
616.51	138.250
616.85	137.950
617.20	137.900
617.54	139.200
617.89	137.350
618.23	137.700
618.58	139.050
618.92	137.650
619.27	137.400
619.61	138.450
619.96	138.500
620.30	137.850
620.64	138.600
620.99	137.950
621.33	137.850
621.68	139.250
622.02	137.800
622.37	138.700
622.71	138.050
623.06	138.750
623.40	139.100
623.74	138.350
624.09	138.650
624.43	137.650
624.78	137.000
625.12	136.750
625.46	137.850
625.81	138.050
626.15	138.250
626.50	137.300
626.84	136.050
627.18	138.350
627.53	137.850
627.87	137.400
628.21	138.550
628.56	138.000
628.90	138.800
629.25	137.300
629.59	137.750
629.93	137.900
630.28	137.450
630.62	138.250
630.96	137.600
631.31	137.700
631.65	137.200
631.99	135.700
632.34	135.700
632.68	135.200
633.02	134.750
633.36	136.150
633.71	136.800
634.05	136.250
634.39	136.150
634.74	135.950
635.08	135.750
635.42	135.250
635.76	136.300
636.11	135.250
636.45	137.750
636.79	135.100
637.14	134.350
637.48	135.950
637.82	135.600
638.16	135.800
638.50	134.900
638.85	135.400
639.19	136.300
639.53	137.300
639.87	135.200
640.22	135.200
640.56	135.200
640.90	134.800
641.24	135.250
641.58	136.050
641.93	134.650
642.27	135.900
642.61	136.250
642.95	136.300
643.29	134.600
643.64	135.800
643.98	135.250
644.32	135.400
644.66	134.150
645.00	135.500
645.34	136.100
645.68	136.450
646.03	137.400
646.37	137.000
646.71	135.750
647.05	136.950
647.39	135.100
647.73	136.250
648.07	136.850
648.42	136.500
648.76	135.750
649.10	136.900
649.44	137.000
649.78	135.850
650.12	137.250
650.46	136.100
650.80	136.400
651.14	137.400
651.48	136.400
651.82	135.700
652.16	135.900
652.51	134.650
652.85	134.350
653.19	135.350
653.53	136.300
653.87	134.900
654.21	136.100
654.55	135.850
654.89	135.600
655.23	135.950
655.57	136.050
655.91	136.050
656.25	137.400
656.59	135.800
656.93	135.650
657.27	135.150
657.61	138.000
657.95	136.100
658.29	135.200
658.63	135.700
658.97	136.900
659.31	137.800
659.65	135.100
659.99	136.550
660.33	137.600
660.67	135.950
661.01	136.950
661.35	135.900
661.68	135.150
662.02	134.850
662.36	135.000
662.70	136.500
663.04	135.400
663.38	136.900
663.72	136.300
664.06	135.750
664.40	135.000
664.74	135.250
665.08	135.850
665.42	136.650
665.75	135.550
666.09	135.100
666.43	138.950
666.77	135.450
667.11	134.500
667.45	136.200
667.79	135.850
668.12	135.750
668.46	135.500
668.80	135.400
669.14	135.000
669.48	135.450
669.82	136.650
670.16	136.650
670.49	134.450
670.83	134.800
671.17	135.100
671.51	135.800
671.85	135.650
672.18	135.700
672.52	135.050
672.86	136.000
673.20	135.300
673.54	136.350
673.87	135.750
674.21	134.750
674.55	135.900
674.89	134.550
675.22	136.450
675.56	136.350
675.90	136.400
676.24	135.400
676.57	135.900
676.91	135.850
677.25	134.950
677.59	134.400
677.92	134.850
678.26	135.000
678.60	135.750
678.93	135.900
679.27	135.550
679.61	136.450
679.95	135.450
680.28	135.950
680.62	134.900
680.96	136.200
681.29	134.350
681.63	135.350
681.97	134.750
682.30	135.050
682.64	135.600
682.98	135.650
683.31	136.950
683.65	136.100
683.99	135.200
684.32	136.100
684.66	134.850
685.00	136.100
685.33	136.200
685.67	135.350
686.00	134.650
686.34	135.700
686.68	138.150
687.01	135.750
687.35	134.950
687.68	136.750
688.02	135.300
688.36	135.600
688.69	135.150
689.03	136.450
689.36	136.050
689.70	134.850
690.03	135.700
690.37	134.550
690.71	135.600
691.04	135.650
691.38	135.200
691.71	134.900
692.05	134.550
692.38	135.250
692.72	135.700
693.05	136.100
693.39	135.100
693.72	136.350
694.06	135.200
694.39	135.700
694.73	134.600
695.06	133.750
695.40	135.500
695.73	135.200
696.07	135.900
696.40	134.850
696.74	137.050
697.07	135.700
697.41	135.000
697.74	136.300
698.08	134.750
698.41	135.150
698.74	136.200
699.08	135.150
699.41	135.650
699.75	135.150
700.08	134.450
700.42	134.750
700.75	135.100
701.08	135.300
701.42	134.900
701.75	135.250
702.09	135.900
702.42	136.450
702.75	135.500
703.09	136.000
703.42	134.950
703.75	135.500
704.09	135.300
704.42	136.550
704.76	135.750
705.09	136.150
705.42	134.300
705.76	136.400
706.09	134.550
706.42	137.400
706.76	135.500
707.09	135.400
707.42	135.700
707.76	135.600
708.09	134.750
708.42	135.650
708.75	137.150
709.09	134.300
709.42	134.250
709.75	136.250
710.09	137.550
710.42	136.900
710.75	136.050
711.08	136.450
711.42	136.200
711.75	135.100
712.08	135.250
712.41	134.250
712.75	136.400
713.08	133.700
713.41	133.750
713.74	135.100
714.08	134.950
714.41	135.600
714.74	135.350
715.07	135.850
715.41	134.600
715.74	135.900
716.07	135.200
716.40	135.500
716.73	135.950
717.06	134.400
717.40	135.800
717.73	135.900
718.06	135.100
718.39	136.250
718.72	135.400
719.05	135.050
719.39	135.700
719.72	135.400
720.05	135.650
720.38	134.850
720.71	134.500
721.04	134.800
721.37	134.650
721.71	134.800
722.04	134.200
722.37	134.450
722.70	135.450
723.03	136.000
723.36	135.150
723.69	134.650
724.02	134.250
724.35	135.400
724.68	136.350
725.01	135.050
725.35	134.850
725.68	135.650
726.01	134.750
726.34	135.350
726.67	135.450
727.00	134.250
727.33	135.000
727.66	135.200
727.99	135.350
728.32	134.650
728.65	134.400
728.98	135.600
729.31	135.850
729.64	134.250
729.97	133.900
730.30	134.200
730.63	135.400
730.96	135.950
731.29	134.400
731.62	134.550
731.95	136.800
732.28	138.100
732.61	136.600
732.94	137.150
733.27	135.000
733.60	134.600
733.93	132.600
734.25	134.050
734.58	135.350
734.91	135.650
735.24	134.650
735.57	135.200
735.90	136.350
736.23	135.050
736.56	134.850
736.89	135.550
737.22	136.100
737.55	135.400
737.87	136.400
738.20	135.100
738.53	134.500
738.86	135.200
739.19	135.900
739.52	136.100
739.85	135.150
740.17	135.100
740.50	136.100
740.83	135.100
741.16	135.250
741.49	135.250
741.82	135.300
742.14	133.400
742.47	134.050
742.80	135.650
743.13	134.350
743.46	135.500
743.78	134.900
744.11	136.250
744.44	135.650
744.77	136.200
745.10	135.150
745.42	134.600
745.75	134.800
746.08	135.600
746.41	135.750
746.73	135.700
747.06	136.200
747.39	134.550
747.72	134.400
748.04	135.150
748.37	136.250
748.70	135.400
749.02	136.200
749.35	135.550
749.68	134.250
750.01	134.700
750.33	137.250
750.66	135.150
750.99	135.600
751.31	134.950
751.64	134.050
751.97	133.800
752.29	135.750
752.62	135.000
752.95	134.700
753.27	135.550
753.60	135.150
753.93	134.550
754.25	134.800
754.58	135.900
754.91	134.600
755.23	136.750
755.56	139.350
755.88	137.250
756.21	135.550
756.54	134.150
756.86	134.850
757.19	134.500
757.51	136.050
757.84	135.450
758.17	134.750
758.49	134.850
758.82	134.600
759.14	134.550
759.47	134.650
759.79	136.250
760.12	135.400
760.44	134.250
760.77	135.200
761.09	134.550
761.42	135.900
761.75	135.900
762.07	135.000
762.40	135.050
762.72	135.400
763.05	135.450
763.37	135.900
763.70	134.600
764.02	135.150
764.35	135.100
764.67	134.100
764.99	135.100
765.32	134.250
765.64	134.350
765.97	134.400
766.29	134.300
766.62	133.950
766.94	136.100
767.27	135.800
767.59	134.050
767.91	134.100
768.24	136.650
768.56	135.400
768.89	135.750
769.21	135.200
769.54	135.750
769.86	135.500
770.18	135.300
770.51	134.800
770.83	135.200
771.15	135.400
771.48	135.050
771.80	134.250
772.13	135.850
772.45	135.600
772.77	135.100
773.10	134.200
773.42	135.050
773.74	134.400
774.07	134.900
774.39	135.200
774.71	134.100
775.04	135.600
775.36	134.050
775.68	133.550
776.01	134.250
776.33	134.100
776.65	134.350
776.97	134.750
777.30	136.150
777.62	134.900
777.94	134.900
778.26	134.800
778.59	133.600
778.91	133.550
779.23	135.250
779.55	136.250
779.88	135.750
780.20	136.100
780.52	134.200
780.84	134.350
781.17	133.850
781.49	134.800
781.81	135.600
782.13	135.600
782.45	136.250
782.78	135.250
783.10	134.950
783.42	135.650
783.74	134.650
784.06	134.300
784.39	133.750
784.71	134.350
785.03	135.400
785.35	136.750
785.67	135.400
785.99	133.750
786.31	134.600
786.64	135.350
786.96	135.350
787.28	136.350
787.60	134.650
787.92	134.350
788.24	134.650
788.56	134.050
788.88	134.050
789.20	136.000
789.53	134.800
789.85	135.650
790.17	135.400
790.49	135.050
790.81	134.750
791.13	135.850
791.45	135.850
791.77	134.450
792.09	136.300
