OOIBase32 Version 2.0.6.5 Data File
++++++++++++++++++++++++++++++++++++
Date: 04-23-2021, 12:05:58
User: Valued Ocean Optics Customer
Spectrometer Serial Number: USB2E5007
Spectrometer Channel: Master
Integration Time (msec): 45
Spectra Averaged: 20
Boxcar Smoothing: 0
Correct for Electrical Dark: Disabled
Time Normalized: Disabled
Dual-beam Reference: Disabled
Reference Channel: Master
Temperature: Not acquired
Spectrometer Type: S2000
ADC Type: USB2000
Number of Pixels in File: 2048
Graph Title: 
>>>>>Begin Spectral Data<<<<<
340.15	0.000
340.52	122.950
340.90	125.050
341.27	126.000
341.64	127.100
342.01	130.950
342.38	131.750
342.76	133.300
343.13	134.800
343.50	133.950
343.87	134.450
344.24	135.250
344.61	135.400
344.98	133.100
345.36	133.600
345.73	134.850
346.10	133.500
346.47	134.450
346.84	133.350
347.21	133.050
347.58	133.350
347.96	136.850
348.33	132.950
348.70	134.400
349.07	134.600
349.44	135.450
349.81	137.500
350.18	134.900
350.55	135.950
350.92	135.550
351.30	135.400
351.67	134.950
352.04	134.800
352.41	135.500
352.78	136.650
353.15	136.700
353.52	136.650
353.89	138.400
354.26	137.400
354.63	135.650
355.00	137.200
355.37	136.350
355.75	136.450
356.12	136.550
356.49	135.950
356.86	136.100
357.23	136.450
357.60	136.200
357.97	136.000
358.34	135.900
358.71	137.900
359.08	136.750
359.45	136.100
359.82	137.400
360.19	137.050
360.56	136.550
360.93	137.800
361.30	137.450
361.67	137.050
362.04	138.750
362.41	137.200
362.78	136.550
363.15	139.050
363.52	138.400
363.89	137.550
364.26	138.250
364.63	136.900
365.00	138.000
365.37	137.850
365.74	137.650
366.11	138.500
366.48	139.800
366.85	138.400
367.22	137.450
367.59	140.350
367.96	137.900
368.33	137.900
368.70	138.000
369.07	138.700
369.44	138.750
369.81	138.650
370.18	139.500
370.55	137.550
370.92	139.300
371.29	139.200
371.66	139.600
372.03	139.600
372.40	139.400
372.77	139.300
373.13	138.900
373.50	139.600
373.87	139.400
374.24	139.650
374.61	139.350
374.98	139.750
375.35	141.200
375.72	140.400
376.09	139.950
376.46	139.200
376.83	138.700
377.20	138.900
377.56	139.200
377.93	139.500
378.30	139.850
378.67	139.100
379.04	140.500
379.41	139.550
379.78	140.100
380.15	141.450
380.51	139.950
380.88	139.900
381.25	140.500
381.62	141.000
381.99	140.400
382.36	139.300
382.73	140.350
383.09	140.400
383.46	140.550
383.83	140.800
384.20	142.400
384.57	141.600
384.94	141.200
385.31	140.400
385.67	140.600
386.04	139.900
386.41	140.550
386.78	140.000
387.15	142.550
387.51	142.600
387.88	140.650
388.25	140.950
388.62	141.600
388.99	141.450
389.36	140.400
389.72	140.750
390.09	144.250
390.46	142.800
390.83	141.100
391.19	140.700
391.56	141.800
391.93	141.500
392.30	142.450
392.67	142.050
393.03	141.050
393.40	141.400
393.77	141.700
394.14	141.300
394.50	141.300
394.87	141.750
395.24	141.750
395.61	141.950
395.97	142.950
396.34	142.050
396.71	142.550
397.08	142.550
397.44	141.100
397.81	142.300
398.18	142.350
398.55	142.450
398.91	141.300
399.28	142.050
399.65	142.750
400.01	144.100
400.38	140.950
400.75	141.050
401.12	141.300
401.48	141.300
401.85	142.650
402.22	142.250
402.58	142.250
402.95	143.750
403.32	143.100
403.68	142.300
404.05	142.100
404.42	142.750
404.78	143.050
405.15	143.950
405.52	143.850
405.88	142.900
406.25	141.800
406.62	142.650
406.98	142.600
407.35	142.900
407.72	142.700
408.08	143.450
408.45	144.050
408.82	143.500
409.18	142.650
409.55	143.250
409.91	143.400
410.28	142.500
410.65	143.950
411.01	143.750
411.38	142.100
411.75	143.050
412.11	144.500
412.48	146.150
412.84	145.650
413.21	143.750
413.58	143.450
413.94	145.450
414.31	143.800
414.67	145.400
415.04	143.850
415.41	145.250
415.77	145.350
416.14	146.500
416.50	146.100
416.87	146.650
417.23	146.800
417.60	147.100
417.97	145.800
418.33	146.900
418.70	147.400
419.06	151.050
419.43	148.400
419.79	148.800
420.16	149.000
420.52	150.050
420.89	151.100
421.25	152.700
421.62	153.000
421.98	153.350
422.35	152.650
422.72	153.000
423.08	157.300
423.45	157.950
423.81	157.850
424.18	159.050
424.54	159.200
424.91	160.800
425.27	163.750
425.64	165.650
426.00	166.600
426.37	167.750
426.73	168.450
427.09	173.700
427.46	175.700
427.82	179.100
428.19	178.850
428.55	182.850
428.92	185.300
429.28	192.150
429.65	193.350
430.01	200.050
430.38	202.100
430.74	205.250
431.11	208.150
431.47	220.450
431.83	220.450
432.20	230.550
432.56	233.100
432.93	243.600
433.29	246.150
433.66	254.700
434.02	271.050
434.38	265.550
434.75	283.300
435.11	282.250
435.48	296.850
435.84	302.550
436.20	322.200
436.57	325.950
436.93	341.750
437.30	360.000
437.66	357.650
438.02	396.600
438.39	409.600
438.75	422.200
439.12	457.450
439.48	469.750
439.84	482.900
440.21	506.200
440.57	519.250
440.93	588.550
441.30	600.000
441.66	617.100
442.02	660.850
442.39	668.600
442.75	709.700
443.11	732.600
443.48	781.800
443.84	816.300
444.20	832.550
444.57	944.800
444.93	977.850
445.29	1067.200
445.66	1064.750
446.02	1131.950
446.38	1248.400
446.75	1289.000
447.11	1364.300
447.47	1358.800
447.84	1440.500
448.20	1574.250
448.56	1679.200
448.92	1757.550
449.29	1787.050
449.65	1854.450
450.01	1943.650
450.37	1942.350
450.74	2069.450
451.10	2172.800
451.46	2266.700
451.83	2207.950
452.19	2292.800
452.55	2234.050
452.91	2414.650
453.28	2489.850
453.64	2574.250
454.00	2583.650
454.36	2386.950
454.72	2610.150
455.09	2529.150
455.45	2597.500
455.81	2547.200
456.17	2504.850
456.54	2507.150
456.90	2515.650
457.26	2358.450
457.62	2379.400
457.98	2380.650
458.35	2373.400
458.71	2229.400
459.07	2204.200
459.43	2087.050
459.79	2070.000
460.16	1934.050
460.52	1891.800
460.88	1870.650
461.24	1868.850
461.60	1816.050
461.96	1818.400
462.33	1718.250
462.69	1646.800
463.05	1586.050
463.41	1590.850
463.77	1530.350
464.13	1448.200
464.49	1484.000
464.86	1426.900
465.22	1384.650
465.58	1364.250
465.94	1377.050
466.30	1309.350
466.66	1337.750
467.02	1320.850
467.38	1274.700
467.75	1239.600
468.11	1212.750
468.47	1189.100
468.83	1184.600
469.19	1170.500
469.55	1158.100
469.91	1107.950
470.27	1045.500
470.63	1073.800
470.99	1056.600
471.35	1003.950
471.72	1001.950
472.08	987.050
472.44	951.550
472.80	909.800
473.16	916.050
473.52	871.850
473.88	853.000
474.24	827.050
474.60	823.200
474.96	794.300
475.32	770.000
475.68	743.650
476.04	732.650
476.40	708.450
476.76	692.950
477.12	666.350
477.48	652.500
477.84	643.650
478.20	625.400
478.56	610.300
478.92	593.850
479.28	580.150
479.64	566.400
480.00	559.550
480.36	552.900
480.72	535.200
481.08	527.950
481.44	516.400
481.80	505.000
482.16	497.150
482.52	488.400
482.88	479.300
483.24	475.950
483.60	472.450
483.96	461.650
484.32	453.500
484.68	444.600
485.04	435.450
485.40	429.650
485.76	421.700
486.12	418.600
486.48	409.800
486.83	402.950
487.19	393.450
487.55	388.350
487.91	382.850
488.27	373.700
488.63	370.200
488.99	361.200
489.35	352.400
489.71	345.700
490.07	340.700
490.43	331.200
490.78	325.700
491.14	320.700
491.50	311.850
491.86	304.450
492.22	298.900
492.58	291.400
492.94	286.750
493.30	281.850
493.65	271.850
494.01	270.750
494.37	265.300
494.73	259.600
495.09	255.400
495.45	251.200
495.80	245.950
496.16	243.850
496.52	238.200
496.88	235.450
497.24	230.950
497.60	228.800
497.95	223.450
498.31	221.600
498.67	215.250
499.03	215.450
499.39	213.000
499.74	209.850
500.10	207.100
500.46	205.650
500.82	203.050
501.18	201.200
501.53	198.200
501.89	196.050
502.25	194.600
502.61	191.300
502.96	192.000
503.32	188.700
503.68	191.050
504.04	186.200
504.40	184.200
504.75	185.050
505.11	183.200
505.47	182.550
505.82	181.500
506.18	178.200
506.54	175.750
506.90	175.650
507.25	174.650
507.61	174.050
507.97	171.600
508.33	171.800
508.68	173.150
509.04	169.650
509.40	169.150
509.75	166.600
510.11	168.050
510.47	168.100
510.82	165.650
511.18	162.100
511.54	164.300
511.89	164.100
512.25	162.550
512.61	162.300
512.96	160.800
513.32	159.400
513.68	159.650
514.03	158.100
514.39	159.250
514.75	157.250
515.10	160.250
515.46	158.750
515.82	154.550
516.17	155.050
516.53	156.350
516.89	152.600
517.24	153.400
517.60	153.100
517.95	154.050
518.31	153.700
518.67	154.150
519.02	152.850
519.38	151.600
519.73	150.450
520.09	150.150
520.45	150.350
520.80	150.700
521.16	150.500
521.51	149.350
521.87	148.600
522.22	148.150
522.58	149.700
522.94	148.300
523.29	147.550
523.65	147.000
524.00	149.350
524.36	148.450
524.71	147.600
525.07	146.500
525.42	147.200
525.78	146.400
526.14	146.500
526.49	145.900
526.85	147.200
527.20	146.750
527.56	147.200
527.91	145.650
528.27	146.100
528.62	144.950
528.98	144.600
529.33	144.250
529.69	144.600
530.04	145.000
530.40	146.050
530.75	144.200
531.11	146.550
531.46	145.050
531.81	144.350
532.17	144.750
532.52	144.250
532.88	142.800
533.23	143.350
533.59	145.200
533.94	144.800
534.30	143.650
534.65	143.100
535.01	143.550
535.36	145.250
535.71	143.850
536.07	144.450
536.42	145.450
536.78	144.500
537.13	144.850
537.48	145.650
537.84	145.950
538.19	147.600
538.55	149.400
538.90	151.650
539.25	155.550
539.61	157.000
539.96	158.050
540.32	158.100
540.67	155.600
541.02	154.800
541.38	153.800
541.73	154.800
542.08	154.300
542.44	153.350
542.79	154.400
543.15	153.000
543.50	159.300
543.85	163.800
544.21	166.150
544.56	162.350
544.91	159.300
545.27	154.600
545.62	151.900
545.97	151.200
546.32	150.350
546.68	148.300
547.03	146.750
547.38	148.150
547.74	147.050
548.09	145.650
548.44	144.650
548.80	145.500
549.15	143.600
549.50	142.650
549.85	144.500
550.21	144.800
550.56	143.100
550.91	143.850
551.26	143.200
551.62	142.550
551.97	143.350
552.32	143.100
552.67	140.900
553.03	140.650
553.38	141.500
553.73	141.700
554.08	141.450
554.44	139.550
554.79	140.950
555.14	141.050
555.49	141.000
555.85	141.150
556.20	139.450
556.55	140.900
556.90	139.450
557.25	139.850
557.61	139.800
557.96	141.750
558.31	139.600
558.66	140.350
559.01	141.150
559.36	140.500
559.72	139.450
560.07	139.400
560.42	138.400
560.77	139.900
561.12	140.100
561.47	140.050
561.83	138.900
562.18	138.900
562.53	138.900
562.88	139.600
563.23	142.150
563.58	140.550
563.93	138.850
564.28	142.100
564.64	140.550
564.99	140.150
565.34	139.150
565.69	140.750
566.04	141.250
566.39	138.100
566.74	140.950
567.09	140.450
567.44	140.550
567.79	139.250
568.14	140.450
568.50	139.100
568.85	138.250
569.20	138.550
569.55	139.600
569.90	139.150
570.25	139.900
570.60	139.600
570.95	138.550
571.30	139.050
571.65	137.950
572.00	137.950
572.35	138.500
572.70	138.250
573.05	138.900
573.40	139.100
573.75	139.200
574.10	139.200
574.45	139.900
574.80	140.900
575.15	140.550
575.50	140.200
575.85	139.600
576.20	140.650
576.55	140.600
576.90	141.450
577.25	141.700
577.60	140.350
577.95	141.250
578.30	141.650
578.65	141.350
579.00	140.300
579.35	141.850
579.70	139.550
580.05	139.500
580.40	141.300
580.74	142.150
581.09	141.250
581.44	140.150
581.79	142.050
582.14	141.700
582.49	143.300
582.84	141.200
583.19	139.850
583.54	141.600
583.89	141.150
584.24	140.100
584.58	141.200
584.93	141.200
585.28	142.150
585.63	142.750
585.98	141.200
586.33	141.050
586.68	141.450
587.03	141.800
587.37	141.300
587.72	138.650
588.07	140.250
588.42	140.600
588.77	140.200
589.12	140.400
589.46	140.850
589.81	140.900
590.16	140.450
590.51	139.800
590.86	139.850
591.21	140.450
591.55	140.700
591.90	140.700
592.25	139.850
592.60	139.450
592.95	139.500
593.29	138.250
593.64	139.600
593.99	140.400
594.34	138.950
594.68	139.500
595.03	140.800
595.38	140.450
595.73	138.700
596.07	137.650
596.42	139.100
596.77	139.650
597.12	139.950
597.46	139.250
597.81	138.500
598.16	138.350
598.51	140.450
598.85	139.750
599.20	138.600
599.55	138.800
599.90	138.950
600.24	139.200
600.59	138.200
600.94	138.200
601.28	138.650
601.63	138.050
601.98	137.600
602.32	138.750
602.67	138.400
603.02	139.350
603.36	138.550
603.71	139.950
604.06	139.250
604.40	137.750
604.75	139.400
605.10	138.450
605.44	140.050
605.79	139.450
606.14	139.900
606.48	140.250
606.83	138.700
607.17	139.600
607.52	140.750
607.87	143.250
608.21	144.500
608.56	146.100
608.90	155.200
609.25	160.650
609.60	161.400
609.94	159.450
610.29	156.400
610.63	151.550
610.98	149.400
611.33	148.450
611.67	148.350
612.02	146.250
612.36	144.800
612.71	145.850
613.05	144.050
613.40	144.350
613.74	143.000
614.09	142.850
614.44	141.050
614.78	140.250
615.13	140.300
615.47	140.450
615.82	139.650
616.16	138.900
616.51	140.000
616.85	139.700
617.20	140.550
617.54	141.600
617.89	140.450
618.23	140.500
618.58	140.500
618.92	139.900
619.27	139.750
619.61	140.100
619.96	140.350
620.30	141.050
620.64	140.250
620.99	140.350
621.33	139.900
621.68	140.550
622.02	141.100
622.37	139.800
622.71	140.250
623.06	140.100
623.40	139.500
623.74	139.500
624.09	139.750
624.43	140.800
624.78	138.750
625.12	138.300
625.46	139.500
625.81	139.500
626.15	139.500
626.50	139.200
626.84	137.850
627.18	139.800
627.53	139.400
627.87	139.200
628.21	139.750
628.56	139.900
628.90	139.750
629.25	139.850
629.59	140.950
629.93	140.400
630.28	139.450
630.62	137.900
630.96	139.450
631.31	139.000
631.65	138.300
631.99	137.800
632.34	137.450
632.68	137.500
633.02	137.450
633.36	138.250
633.71	138.100
634.05	138.850
634.39	137.750
634.74	137.500
635.08	136.850
635.42	136.200
635.76	137.450
636.11	136.800
636.45	139.400
636.79	137.800
637.14	137.850
637.48	137.800
637.82	137.000
638.16	137.350
638.50	137.000
638.85	136.250
639.19	138.500
639.53	139.600
639.87	136.350
640.22	137.100
640.56	137.150
640.90	137.150
641.24	136.600
641.58	138.150
641.93	137.400
642.27	137.300
642.61	137.400
642.95	138.000
643.29	137.550
643.64	137.050
643.98	137.050
644.32	137.700
644.66	137.600
645.00	137.050
645.34	137.950
645.68	138.650
646.03	138.150
646.37	137.950
646.71	137.650
647.05	139.600
647.39	137.850
647.73	138.850
648.07	137.800
648.42	138.200
648.76	138.200
649.10	138.350
649.44	138.650
649.78	137.150
650.12	138.850
650.46	138.750
650.80	139.000
651.14	139.250
651.48	137.550
651.82	137.750
652.16	139.300
652.51	137.700
652.85	136.900
653.19	137.550
653.53	137.350
653.87	136.650
654.21	137.300
654.55	138.300
654.89	137.350
655.23	138.400
655.57	137.700
655.91	138.050
656.25	137.950
656.59	136.050
656.93	137.850
657.27	135.600
657.61	138.800
657.95	137.400
658.29	137.250
658.63	136.650
658.97	138.000
659.31	137.550
659.65	137.750
659.99	137.750
660.33	137.700
660.67	136.000
661.01	137.300
661.35	137.600
661.68	138.100
662.02	137.200
662.36	136.200
662.70	137.550
663.04	137.150
663.38	138.400
663.72	138.150
664.06	138.100
664.40	137.100
664.74	138.900
665.08	138.500
665.42	138.200
665.75	135.800
666.09	136.850
666.43	139.050
666.77	137.250
667.11	135.650
667.45	137.950
667.79	137.250
668.12	137.250
668.46	136.650
668.80	136.700
669.14	137.550
669.48	137.800
669.82	138.450
670.16	138.350
670.49	136.750
670.83	136.250
671.17	136.750
671.51	137.050
671.85	137.600
672.18	136.600
672.52	136.050
672.86	137.700
673.20	137.200
673.54	137.950
673.87	136.850
674.21	138.500
674.55	137.650
674.89	137.000
675.22	137.400
675.56	136.800
675.90	137.650
676.24	137.150
676.57	137.700
676.91	137.750
677.25	137.500
677.59	136.850
677.92	137.050
678.26	136.250
678.60	136.600
678.93	137.200
679.27	137.250
679.61	137.500
679.95	136.150
680.28	136.100
680.62	135.950
680.96	136.750
681.29	136.550
681.63	136.950
681.97	137.050
682.30	137.000
682.64	136.350
682.98	136.050
683.31	136.800
683.65	137.350
683.99	135.600
684.32	135.950
684.66	136.000
685.00	136.550
685.33	137.550
685.67	137.250
686.00	136.550
686.34	136.950
686.68	138.600
687.01	137.050
687.35	136.500
687.68	137.850
688.02	137.750
688.36	138.100
688.69	137.250
689.03	137.900
689.36	136.800
689.70	136.000
690.03	137.600
690.37	136.450
690.71	136.200
691.04	136.900
691.38	136.850
691.71	137.050
692.05	135.750
692.38	137.600
692.72	136.750
693.05	137.200
693.39	137.450
693.72	137.600
694.06	136.000
694.39	136.100
694.73	136.050
695.06	136.350
695.40	136.600
695.73	136.700
696.07	137.100
696.40	136.600
696.74	137.150
697.07	138.450
697.41	136.600
697.74	137.550
698.08	136.450
698.41	137.350
698.74	137.650
699.08	136.650
699.41	136.800
699.75	136.900
700.08	135.350
700.42	135.800
700.75	137.150
701.08	137.350
701.42	136.800
701.75	136.700
702.09	138.500
702.42	139.600
702.75	136.700
703.09	137.050
703.42	136.250
703.75	136.450
704.09	136.200
704.42	137.200
704.76	137.150
705.09	137.000
705.42	137.600
705.76	138.500
706.09	136.100
706.42	138.900
706.76	138.750
707.09	137.050
707.42	136.600
707.76	137.100
708.09	136.500
708.42	136.750
708.75	138.100
709.09	136.250
709.42	138.100
709.75	136.800
710.09	137.950
710.42	136.950
710.75	136.650
711.08	138.700
711.42	138.800
711.75	138.500
712.08	137.150
712.41	136.550
712.75	136.850
713.08	136.600
713.41	137.550
713.74	136.850
714.08	136.850
714.41	136.400
714.74	136.300
715.07	137.150
715.41	136.800
715.74	137.950
716.07	136.850
716.40	136.800
716.73	138.000
717.06	136.100
717.40	136.800
717.73	136.400
718.06	136.900
718.39	138.050
718.72	137.000
719.05	135.850
719.39	136.500
719.72	137.800
720.05	137.550
720.38	136.350
720.71	136.100
721.04	137.200
721.37	137.350
721.71	136.400
722.04	136.000
722.37	136.300
722.70	136.300
723.03	136.600
723.36	136.000
723.69	136.650
724.02	136.850
724.35	137.100
724.68	136.950
725.01	135.800
725.35	135.400
725.68	136.600
726.01	136.600
726.34	136.300
726.67	135.900
727.00	136.050
727.33	135.550
727.66	137.650
727.99	136.450
728.32	135.050
728.65	135.450
728.98	137.150
729.31	136.850
729.64	136.400
729.97	135.900
730.30	136.200
730.63	136.700
730.96	135.950
731.29	135.900
731.62	136.150
731.95	137.400
732.28	138.600
732.61	138.100
732.94	137.150
733.27	138.200
733.60	137.150
733.93	135.100
734.25	135.850
734.58	135.750
734.91	137.350
735.24	135.700
735.57	136.650
735.90	136.750
736.23	137.600
736.56	137.250
736.89	135.700
737.22	136.950
737.55	136.750
737.87	138.450
738.20	136.550
738.53	136.450
738.86	136.100
739.19	136.550
739.52	137.650
739.85	136.350
740.17	136.950
740.50	135.350
740.83	135.600
741.16	136.600
741.49	137.450
741.82	137.200
742.14	137.100
742.47	136.550
742.80	136.750
743.13	136.550
743.46	136.000
743.78	137.350
744.11	136.050
744.44	137.650
744.77	137.550
745.10	137.800
745.42	137.150
745.75	137.250
746.08	137.050
746.41	137.000
746.73	136.500
747.06	137.950
747.39	136.700
747.72	137.000
748.04	136.600
748.37	136.200
748.70	136.350
749.02	136.900
749.35	137.550
749.68	137.000
750.01	136.650
750.33	138.150
750.66	137.100
750.99	136.400
751.31	136.250
751.64	135.100
751.97	135.050
752.29	139.000
752.62	137.150
752.95	137.100
753.27	136.850
753.60	136.900
753.93	136.900
754.25	136.500
754.58	137.050
754.91	137.100
755.23	138.500
755.56	140.050
755.88	137.600
756.21	138.500
756.54	136.450
756.86	135.200
757.19	135.400
757.51	136.150
757.84	137.150
758.17	137.500
758.49	136.500
758.82	136.450
759.14	136.250
759.47	136.500
759.79	136.500
760.12	135.900
760.44	135.850
760.77	136.900
761.09	135.350
761.42	137.000
761.75	137.350
762.07	136.200
762.40	137.050
762.72	136.500
763.05	137.200
763.37	137.150
763.70	136.050
764.02	137.100
764.35	135.050
764.67	135.050
764.99	136.850
765.32	137.350
765.64	136.250
765.97	136.650
766.29	136.850
766.62	134.700
766.94	138.300
767.27	136.450
767.59	135.650
767.91	136.050
768.24	137.300
768.56	136.750
768.89	137.850
769.21	137.200
769.54	136.550
769.86	137.650
770.18	136.900
770.51	136.100
770.83	135.900
771.15	136.450
771.48	136.100
771.80	136.500
772.13	137.500
772.45	137.050
772.77	136.100
773.10	136.650
773.42	136.750
773.74	136.050
774.07	136.700
774.39	137.400
774.71	136.750
775.04	136.700
775.36	136.200
775.68	136.550
776.01	135.500
776.33	135.400
776.65	135.750
776.97	134.900
777.30	137.500
777.62	137.250
777.94	136.850
778.26	136.300
778.59	135.300
778.91	134.600
779.23	135.150
779.55	136.300
779.88	136.950
780.20	136.950
780.52	134.750
780.84	134.900
781.17	136.450
781.49	136.150
781.81	136.550
782.13	136.250
782.45	136.150
782.78	136.600
783.10	137.150
783.42	137.400
783.74	135.500
784.06	136.000
784.39	134.450
784.71	136.800
785.03	136.850
785.35	137.850
785.67	136.300
785.99	135.850
786.31	136.050
786.64	137.400
786.96	135.800
787.28	137.500
787.60	135.600
787.92	136.000
788.24	136.550
788.56	135.500
788.88	136.950
789.20	141.150
789.53	137.100
789.85	135.900
790.17	136.400
790.49	136.500
