OOIBase32 Version 2.0.6.5 Data File
++++++++++++++++++++++++++++++++++++
Date: 04-23-2021, 12:03:46
User: Valued Ocean Optics Customer
Spectrometer Serial Number: USB2E5007
Spectrometer Channel: Master
Integration Time (msec): 45
Spectra Averaged: 20
Boxcar Smoothing: 0
Correct for Electrical Dark: Disabled
Time Normalized: Disabled
Dual-beam Reference: Disabled
Reference Channel: Master
Temperature: Not acquired
Spectrometer Type: S2000
ADC Type: USB2000
Number of Pixels in File: 2048
Graph Title: 
>>>>>Begin Spectral Data<<<<<
340.15	0.000
340.52	128.800
340.90	130.250
341.27	131.700
341.64	132.700
342.01	136.100
342.38	137.700
342.76	138.900
343.13	139.600
343.50	139.800
343.87	139.100
344.24	139.150
344.61	140.750
344.98	139.050
345.36	139.300
345.73	140.600
346.10	137.500
346.47	139.800
346.84	138.800
347.21	138.300
347.58	139.750
347.96	141.550
348.33	138.700
348.70	139.250
349.07	140.400
349.44	141.500
349.81	144.600
350.18	142.400
350.55	141.550
350.92	142.350
351.30	141.200
351.67	141.300
352.04	142.300
352.41	141.900
352.78	144.150
353.15	143.950
353.52	142.550
353.89	143.750
354.26	142.250
354.63	142.700
355.00	142.200
355.37	143.100
355.75	142.700
356.12	142.750
356.49	144.050
356.86	143.450
357.23	143.050
357.60	143.100
357.97	142.500
358.34	142.450
358.71	143.600
359.08	143.450
359.45	142.500
359.82	143.700
360.19	144.200
360.56	143.600
360.93	144.650
361.30	144.750
361.67	142.300
362.04	144.450
362.41	143.100
362.78	143.400
363.15	145.950
363.52	145.350
363.89	143.450
364.26	143.750
364.63	143.300
365.00	144.150
365.37	144.450
365.74	143.900
366.11	144.650
366.48	145.800
366.85	144.450
367.22	144.350
367.59	145.850
367.96	144.700
368.33	144.550
368.70	145.700
369.07	146.200
369.44	145.000
369.81	144.650
370.18	146.450
370.55	143.650
370.92	145.800
371.29	144.800
371.66	146.800
372.03	145.650
372.40	144.150
372.77	146.500
373.13	144.650
373.50	146.200
373.87	144.600
374.24	146.600
374.61	146.200
374.98	144.700
375.35	146.350
375.72	147.450
376.09	146.550
376.46	145.500
376.83	145.000
377.20	147.200
377.56	147.450
377.93	145.900
378.30	146.300
378.67	145.250
379.04	146.100
379.41	145.750
379.78	146.850
380.15	149.000
380.51	147.500
380.88	146.900
381.25	146.350
381.62	147.650
381.99	146.550
382.36	147.100
382.73	146.750
383.09	148.450
383.46	146.750
383.83	148.050
384.20	147.850
384.57	147.450
384.94	148.650
385.31	146.750
385.67	148.800
386.04	146.900
386.41	147.450
386.78	147.500
387.15	148.600
387.51	148.350
387.88	147.350
388.25	147.350
388.62	147.500
388.99	148.150
389.36	148.100
389.72	147.850
390.09	149.700
390.46	148.850
390.83	147.650
391.19	148.100
391.56	147.400
391.93	147.750
392.30	149.000
392.67	149.400
393.03	147.400
393.40	148.450
393.77	148.500
394.14	148.300
394.50	148.950
394.87	148.550
395.24	149.050
395.61	148.000
395.97	149.000
396.34	147.100
396.71	149.150
397.08	149.400
397.44	147.250
397.81	148.800
398.18	148.950
398.55	148.500
398.91	149.200
399.28	149.400
399.65	150.850
400.01	149.900
400.38	148.850
400.75	148.900
401.12	148.850
401.48	149.150
401.85	150.650
402.22	149.500
402.58	150.550
402.95	151.400
403.32	150.200
403.68	149.900
404.05	149.250
404.42	150.400
404.78	150.250
405.15	149.950
405.52	150.100
405.88	150.250
406.25	150.950
406.62	149.000
406.98	150.250
407.35	149.250
407.72	149.700
408.08	150.450
408.45	150.750
408.82	151.650
409.18	150.750
409.55	151.950
409.91	152.150
410.28	150.850
410.65	151.450
411.01	150.350
411.38	150.600
411.75	151.150
412.11	152.600
412.48	153.450
412.84	153.400
413.21	152.600
413.58	152.950
413.94	154.850
414.31	154.400
414.67	153.300
415.04	154.250
415.41	155.150
415.77	154.700
416.14	154.650
416.50	155.650
416.87	156.200
417.23	156.150
417.60	157.650
417.97	157.700
418.33	157.400
418.70	159.800
419.06	162.250
419.43	161.450
419.79	163.350
420.16	161.550
420.52	165.650
420.89	165.600
421.25	167.000
421.62	167.900
421.98	169.600
422.35	170.500
422.72	169.600
423.08	174.400
423.45	177.600
423.81	178.400
424.18	179.750
424.54	181.100
424.91	183.550
425.27	188.250
425.64	190.750
426.00	195.400
426.37	200.050
426.73	200.400
427.09	205.750
427.46	209.650
427.82	214.900
428.19	214.150
428.55	220.600
428.92	226.850
429.28	237.950
429.65	243.150
430.01	255.900
430.38	254.400
430.74	261.000
431.11	265.700
431.47	287.000
431.83	287.950
432.20	306.750
432.56	311.300
432.93	327.200
433.29	332.200
433.66	342.900
434.02	369.950
434.38	363.750
434.75	396.700
435.11	394.950
435.48	422.050
435.84	431.150
436.20	463.800
436.57	469.400
436.93	495.050
437.30	528.700
437.66	526.550
438.02	590.650
438.39	611.100
438.75	627.800
439.12	690.950
439.48	712.700
439.84	733.750
440.21	771.250
440.57	797.850
440.93	917.100
441.30	927.250
441.66	951.250
442.02	1030.950
442.39	1038.200
442.75	1105.400
443.11	1138.300
443.48	1211.650
443.84	1276.800
444.20	1296.200
444.57	1480.050
444.93	1527.700
445.29	1672.200
445.66	1661.200
446.02	1766.700
446.38	1956.450
446.75	2000.350
447.11	2111.750
447.47	2103.200
447.84	2220.950
448.20	2414.250
448.56	2570.700
448.92	2677.900
449.29	2730.500
449.65	2802.750
450.01	2945.850
450.37	2930.600
450.74	3120.300
451.10	3263.150
451.46	3408.600
451.83	3298.350
452.19	3420.200
452.55	3337.650
452.91	3582.950
453.28	3693.550
453.64	3810.500
454.00	3825.900
454.36	3557.050
454.72	3863.100
455.09	3762.500
455.45	3846.200
455.81	3794.450
456.17	3730.250
456.54	3738.350
456.90	3738.500
457.26	3527.700
457.62	3570.100
457.98	3577.000
458.35	3574.350
458.71	3367.600
459.07	3345.750
459.43	3170.100
459.79	3159.100
460.16	2964.900
460.52	2909.850
460.88	2882.050
461.24	2874.800
461.60	2801.400
461.96	2808.250
462.33	2658.950
462.69	2556.350
463.05	2463.400
463.41	2468.200
463.77	2389.300
464.13	2260.250
464.49	2306.400
464.86	2214.650
465.22	2158.000
465.58	2119.550
465.94	2142.800
466.30	2036.950
466.66	2073.350
467.02	2047.750
467.38	1968.800
467.75	1920.750
468.11	1869.050
468.47	1833.450
468.83	1831.900
469.19	1807.900
469.55	1787.400
469.91	1707.050
470.27	1601.450
470.63	1644.650
470.99	1618.950
471.35	1542.200
471.72	1540.100
472.08	1518.850
472.44	1457.050
472.80	1397.950
473.16	1403.550
473.52	1334.400
473.88	1303.650
474.24	1274.950
474.60	1249.300
474.96	1211.100
475.32	1173.100
475.68	1131.500
476.04	1117.400
476.40	1074.550
476.76	1055.000
477.12	1009.300
477.48	988.050
477.84	977.000
478.20	941.150
478.56	918.550
478.92	892.150
479.28	868.350
479.64	848.750
480.00	838.200
480.36	824.550
480.72	795.700
481.08	783.850
481.44	762.900
481.80	750.550
482.16	730.200
482.52	715.650
482.88	699.750
483.24	696.300
483.60	684.950
483.96	667.850
484.32	653.400
484.68	638.100
485.04	632.400
485.40	620.650
485.76	608.950
486.12	597.450
486.48	582.600
486.83	570.350
487.19	559.750
487.55	549.450
487.91	539.050
488.27	524.750
488.63	518.700
488.99	502.050
489.35	492.650
489.71	478.700
490.07	469.700
490.43	458.600
490.78	450.350
491.14	438.300
491.50	426.300
491.86	417.300
492.22	407.300
492.58	396.800
492.94	385.750
493.30	375.900
493.65	368.250
494.01	356.250
494.37	350.500
494.73	340.000
495.09	334.950
495.45	327.100
495.80	319.900
496.16	313.850
496.52	307.500
496.88	301.100
497.24	296.250
497.60	293.600
497.95	284.600
498.31	280.050
498.67	275.150
499.03	271.400
499.39	266.500
499.74	263.200
500.10	258.200
500.46	253.500
500.82	251.100
501.18	245.950
501.53	242.000
501.89	237.350
502.25	237.400
502.61	232.500
502.96	231.200
503.32	227.900
503.68	227.300
504.04	222.550
504.40	220.200
504.75	218.750
505.11	215.950
505.47	214.350
505.82	213.100
506.18	209.950
506.54	206.500
506.90	203.750
507.25	204.100
507.61	202.500
507.97	202.600
508.33	199.600
508.68	196.150
509.04	195.100
509.40	194.750
509.75	191.450
510.11	191.250
510.47	189.550
510.82	187.300
511.18	184.900
511.54	184.100
511.89	183.250
512.25	182.700
512.61	182.800
512.96	179.800
513.32	179.150
513.68	178.150
514.03	178.200
514.39	175.700
514.75	175.000
515.10	176.400
515.46	173.150
515.82	173.100
516.17	172.900
516.53	171.650
516.89	171.750
517.24	168.250
517.60	169.500
517.95	168.050
518.31	169.500
518.67	166.850
519.02	167.100
519.38	166.150
519.73	165.100
520.09	164.100
520.45	163.950
520.80	163.050
521.16	163.400
521.51	162.000
521.87	161.050
522.22	160.100
522.58	161.800
522.94	160.850
523.29	159.700
523.65	158.300
524.00	160.350
524.36	160.600
524.71	157.550
525.07	158.150
525.42	157.200
525.78	157.750
526.14	158.050
526.49	157.050
526.85	156.850
527.20	156.300
527.56	156.850
527.91	155.700
528.27	155.600
528.62	155.450
528.98	154.300
529.33	153.550
529.69	154.300
530.04	153.850
530.40	153.950
530.75	154.500
531.11	154.800
531.46	154.000
531.81	154.000
532.17	154.100
532.52	152.800
532.88	151.750
533.23	151.350
533.59	153.950
533.94	153.150
534.30	152.400
534.65	152.350
535.01	153.300
535.36	154.000
535.71	152.600
536.07	151.400
536.42	153.900
536.78	153.100
537.13	152.350
537.48	153.100
537.84	154.750
538.19	155.250
538.55	156.650
538.90	159.650
539.25	163.200
539.61	164.000
539.96	166.000
540.32	166.400
540.67	163.650
541.02	162.950
541.38	161.050
541.73	161.900
542.08	161.550
542.44	160.850
542.79	161.400
543.15	162.350
543.50	166.350
543.85	170.450
544.21	172.850
544.56	169.600
544.91	167.050
545.27	161.100
545.62	159.200
545.97	158.400
546.32	156.550
546.68	155.350
547.03	155.050
547.38	155.000
547.74	152.700
548.09	152.700
548.44	151.600
548.80	150.800
549.15	150.100
549.50	149.250
549.85	151.000
550.21	150.100
550.56	149.750
550.91	149.850
551.26	148.950
551.62	149.950
551.97	149.300
552.32	148.750
552.67	146.800
553.03	147.700
553.38	147.900
553.73	148.800
554.08	146.950
554.44	146.550
554.79	146.700
555.14	147.350
555.49	147.050
555.85	148.150
556.20	146.150
556.55	146.500
556.90	145.850
557.25	146.550
557.61	146.250
557.96	147.200
558.31	145.550
558.66	145.300
559.01	146.850
559.36	146.600
559.72	145.900
560.07	146.950
560.42	145.700
560.77	147.200
561.12	145.950
561.47	145.850
561.83	146.000
562.18	144.850
562.53	145.500
562.88	145.300
563.23	148.200
563.58	145.200
563.93	144.700
564.28	148.000
564.64	145.600
564.99	146.300
565.34	145.700
565.69	147.250
566.04	145.600
566.39	146.550
566.74	145.500
567.09	145.950
567.44	146.400
567.79	144.350
568.14	145.700
568.50	144.450
568.85	144.600
569.20	145.050
569.55	145.200
569.90	144.800
570.25	144.950
570.60	144.650
570.95	144.900
571.30	145.400
571.65	145.250
572.00	144.100
572.35	145.350
572.70	145.150
573.05	144.650
573.40	144.950
573.75	144.450
574.10	145.050
574.45	145.450
574.80	145.500
575.15	146.500
575.50	147.450
575.85	145.100
576.20	145.400
576.55	146.100
576.90	147.250
577.25	147.500
577.60	147.000
577.95	147.300
578.30	147.350
578.65	146.400
579.00	146.400
579.35	146.400
579.70	146.300
580.05	145.800
580.40	147.100
580.74	147.200
581.09	146.400
581.44	146.950
581.79	147.600
582.14	147.800
582.49	148.450
582.84	147.650
583.19	145.950
583.54	147.650
583.89	147.300
584.24	145.900
584.58	147.850
584.93	147.000
585.28	147.800
585.63	148.650
585.98	147.300
586.33	146.650
586.68	146.800
587.03	146.700
587.37	147.100
587.72	144.250
588.07	145.150
588.42	146.400
588.77	145.000
589.12	145.950
589.46	145.600
589.81	146.050
590.16	144.950
590.51	144.100
590.86	146.800
591.21	146.700
591.55	146.800
591.90	146.300
592.25	146.150
592.60	145.750
592.95	144.800
593.29	144.600
593.64	145.450
593.99	145.350
594.34	144.900
594.68	145.950
595.03	145.000
595.38	144.050
595.73	144.500
596.07	143.750
596.42	144.750
596.77	145.650
597.12	146.200
597.46	145.900
597.81	145.200
598.16	144.950
598.51	145.950
598.85	145.400
599.20	144.250
599.55	143.200
599.90	144.150
600.24	143.850
600.59	144.250
600.94	144.250
601.28	145.900
601.63	143.950
601.98	144.450
602.32	144.750
602.67	144.300
603.02	144.850
603.36	145.000
603.71	143.750
604.06	144.150
604.40	144.200
604.75	144.200
605.10	144.100
605.44	145.550
605.79	144.250
606.14	144.200
606.48	146.300
606.83	144.650
607.17	145.950
607.52	145.600
607.87	147.350
608.21	149.550
608.56	152.350
608.90	161.250
609.25	165.450
609.60	166.650
609.94	165.650
610.29	162.400
610.63	158.050
610.98	155.350
611.33	153.600
611.67	153.000
612.02	151.650
612.36	149.550
612.71	150.700
613.05	149.850
613.40	148.450
613.74	147.550
614.09	149.100
614.44	145.400
614.78	145.700
615.13	144.950
615.47	145.350
615.82	145.500
616.16	144.200
616.51	146.200
616.85	145.200
617.20	144.350
617.54	146.900
617.89	145.200
618.23	144.650
618.58	146.150
618.92	145.650
619.27	145.800
619.61	145.050
619.96	144.750
620.30	145.500
620.64	145.400
620.99	145.600
621.33	145.700
621.68	145.900
622.02	146.250
622.37	145.000
622.71	144.350
623.06	145.900
623.40	145.850
623.74	145.400
624.09	145.950
624.43	145.200
624.78	143.100
625.12	143.750
625.46	145.750
625.81	144.800
626.15	145.300
626.50	145.600
626.84	144.100
627.18	145.800
627.53	145.350
627.87	144.450
628.21	145.500
628.56	144.400
628.90	144.600
629.25	144.750
629.59	145.650
629.93	145.700
630.28	146.500
630.62	144.400
630.96	144.750
631.31	143.450
631.65	143.350
631.99	143.150
632.34	142.600
632.68	143.050
633.02	143.200
633.36	144.000
633.71	143.400
634.05	143.950
634.39	144.300
634.74	142.950
635.08	142.500
635.42	143.450
635.76	143.750
636.11	141.950
636.45	144.800
636.79	143.750
637.14	142.150
637.48	143.400
637.82	143.950
638.16	142.600
638.50	142.150
638.85	143.150
639.19	144.200
639.53	143.550
639.87	141.750
640.22	142.500
640.56	142.450
640.90	142.450
641.24	142.800
641.58	142.150
641.93	142.400
642.27	143.100
642.61	144.050
642.95	144.000
643.29	142.700
643.64	143.050
643.98	143.300
644.32	142.350
644.66	141.950
645.00	142.600
645.34	143.700
645.68	143.000
646.03	143.500
646.37	143.550
646.71	143.150
647.05	143.500
647.39	143.200
647.73	142.950
648.07	144.150
648.42	144.050
648.76	144.050
649.10	143.250
649.44	145.300
649.78	143.050
650.12	143.400
650.46	144.350
650.80	144.550
651.14	144.700
651.48	143.700
651.82	143.150
652.16	143.300
652.51	142.400
652.85	141.600
653.19	143.250
653.53	144.000
653.87	143.250
654.21	144.000
654.55	142.400
654.89	142.500
655.23	143.200
655.57	143.850
655.91	143.450
656.25	142.500
656.59	143.250
656.93	142.750
657.27	142.400
657.61	143.950
657.95	143.550
658.29	143.000
658.63	142.450
658.97	142.850
659.31	143.950
659.65	142.850
659.99	144.500
660.33	143.000
660.67	142.750
661.01	143.900
661.35	142.450
661.68	143.000
662.02	142.700
662.36	142.200
662.70	143.400
663.04	143.500
663.38	144.200
663.72	142.200
664.06	143.850
664.40	142.000
664.74	143.150
665.08	142.550
665.42	143.150
665.75	141.800
666.09	142.350
666.43	146.700
666.77	143.300
667.11	142.350
667.45	143.350
667.79	142.600
668.12	141.750
668.46	142.750
668.80	143.600
669.14	142.500
669.48	142.450
669.82	143.900
670.16	143.750
670.49	142.500
670.83	143.100
671.17	142.450
671.51	142.950
671.85	141.800
672.18	141.650
672.52	142.300
672.86	142.900
673.20	142.800
673.54	142.600
673.87	141.450
674.21	143.700
674.55	143.000
674.89	142.850
675.22	143.600
675.56	142.500
675.90	143.100
676.24	143.150
676.57	141.850
676.91	143.900
677.25	142.350
677.59	143.350
677.92	141.250
678.26	142.250
678.60	142.000
678.93	142.400
679.27	143.300
679.61	142.600
679.95	141.200
680.28	143.200
680.62	142.750
680.96	142.900
681.29	142.350
681.63	142.300
681.97	142.100
682.30	141.800
682.64	143.000
682.98	142.350
683.31	142.600
683.65	144.050
683.99	142.000
684.32	143.200
684.66	143.150
685.00	143.550
685.33	143.100
685.67	142.550
686.00	142.250
686.34	141.650
686.68	145.050
687.01	141.700
687.35	141.850
687.68	142.550
688.02	142.250
688.36	143.100
688.69	142.650
689.03	142.000
689.36	140.950
689.70	142.500
690.03	143.200
690.37	142.650
690.71	142.600
691.04	142.200
691.38	141.800
691.71	142.950
692.05	141.850
692.38	142.100
692.72	142.600
693.05	142.500
693.39	141.250
693.72	142.850
694.06	141.450
694.39	141.850
694.73	142.300
695.06	142.100
695.40	142.900
695.73	142.000
696.07	143.050
696.40	142.450
696.74	144.050
697.07	143.350
697.41	142.100
697.74	143.950
698.08	142.150
698.41	142.750
698.74	143.400
699.08	141.300
699.41	142.400
699.75	141.700
700.08	141.750
700.42	141.950
700.75	142.750
701.08	142.750
701.42	142.100
701.75	142.650
702.09	142.300
702.42	144.600
702.75	143.400
703.09	142.900
703.42	141.750
703.75	142.000
704.09	142.400
704.42	143.000
704.76	142.000
705.09	141.650
705.42	142.200
705.76	143.950
706.09	142.000
706.42	144.950
706.76	143.000
707.09	142.100
707.42	143.500
707.76	143.800
708.09	141.350
708.42	142.650
708.75	143.750
709.09	142.100
709.42	142.100
709.75	141.950
710.09	143.200
710.42	143.500
710.75	141.850
711.08	143.200
711.42	143.850
711.75	143.000
712.08	141.900
712.41	140.600
712.75	142.100
713.08	142.150
713.41	141.700
713.74	143.100
714.08	142.150
714.41	142.400
714.74	141.600
715.07	143.250
715.41	141.950
715.74	144.150
716.07	142.450
716.40	142.050
716.73	143.050
717.06	141.650
717.40	142.200
717.73	141.900
718.06	143.200
718.39	143.050
718.72	143.150
719.05	142.550
719.39	143.300
719.72	142.500
720.05	142.600
720.38	142.750
720.71	141.650
721.04	141.550
721.37	141.500
721.71	141.800
722.04	141.000
722.37	141.850
722.70	142.600
723.03	142.750
723.36	141.700
723.69	141.950
724.02	140.800
724.35	140.650
724.68	142.400
725.01	142.550
725.35	141.800
725.68	141.850
726.01	142.100
726.34	142.400
726.67	142.500
727.00	142.300
727.33	141.150
727.66	142.900
727.99	143.000
728.32	141.650
728.65	142.850
728.98	142.900
729.31	141.950
729.64	142.150
729.97	141.850
730.30	142.200
730.63	142.450
730.96	142.450
731.29	141.350
731.62	142.250
731.95	142.600
732.28	144.500
732.61	143.500
732.94	142.950
733.27	142.000
733.60	141.850
733.93	140.250
734.25	141.200
734.58	141.900
734.91	143.600
735.24	142.300
735.57	143.350
735.90	142.350
736.23	142.250
736.56	142.300
736.89	141.600
737.22	141.250
737.55	142.500
737.87	143.100
738.20	141.950
738.53	141.950
738.86	141.700
739.19	143.600
739.52	143.250
739.85	141.200
740.17	142.650
740.50	142.050
740.83	141.950
741.16	142.350
741.49	142.550
741.82	142.350
742.14	142.300
742.47	142.200
742.80	141.650
743.13	140.300
743.46	141.650
743.78	142.300
744.11	141.700
744.44	141.700
744.77	143.000
745.10	141.850
745.42	141.350
745.75	142.500
746.08	141.450
746.41	143.000
746.73	141.600
747.06	142.950
747.39	141.050
747.72	141.800
748.04	142.100
748.37	141.700
748.70	140.900
749.02	142.750
749.35	142.450
749.68	141.300
750.01	141.550
750.33	144.550
750.66	142.700
750.99	142.850
751.31	141.750
751.64	141.000
751.97	141.200
752.29	143.400
752.62	142.400
752.95	141.350
753.27	142.550
753.60	142.300
753.93	142.800
754.25	141.350
754.58	141.850
754.91	142.450
755.23	142.450
755.56	143.900
755.88	143.400
756.21	142.350
756.54	141.800
756.86	142.750
757.19	141.300
757.51	141.600
757.84	142.400
758.17	141.950
758.49	141.700
758.82	141.700
759.14	141.900
759.47	142.350
759.79	141.850
760.12	141.800
760.44	141.850
760.77	141.800
761.09	140.950
761.42	142.850
761.75	142.900
762.07	142.100
762.40	142.100
762.72	141.550
763.05	141.500
763.37	142.450
763.70	141.550
764.02	141.950
764.35	141.250
764.67	142.150
764.99	142.350
765.32	141.650
765.64	141.600
765.97	141.000
766.29	141.400
766.62	142.350
766.94	143.300
767.27	142.350
767.59	141.850
767.91	141.800
768.24	142.850
768.56	142.350
768.89	141.600
769.21	141.250
769.54	141.150
769.86	142.450
770.18	141.600
770.51	141.250
770.83	141.600
771.15	142.050
771.48	141.950
771.80	141.850
772.13	141.800
772.45	141.600
772.77	142.100
773.10	141.350
773.42	140.950
773.74	140.300
774.07	142.350
774.39	140.750
774.71	141.800
775.04	143.100
775.36	140.800
775.68	141.950
776.01	141.700
776.33	139.750
776.65	141.150
776.97	140.450
777.30	143.100
777.62	142.500
777.94	142.450
778.26	140.150
778.59	140.000
778.91	140.250
779.23	142.400
779.55	142.450
779.88	143.050
780.20	142.100
780.52	140.700
780.84	142.100
781.17	141.500
781.49	141.950
781.81	141.700
782.13	141.500
782.45	142.300
782.78	141.750
783.10	141.950
783.42	141.400
783.74	142.100
784.06	141.650
784.39	139.700
784.71	142.000
785.03	142.000
785.35	142.700
785.67	140.900
785.99	140.550
786.31	141.200
786.64	141.150
786.96	140.900
787.28	141.400
787.60	141.700
787.92	140.950
788.24	141.800
788.56	141.350
788.88	141.850
789.20	147.650
789.53	142.350
789.85	141.750
790.17	141.000
