OOIBase32 Version 2.0.6.5 Data File
++++++++++++++++++++++++++++++++++++
Date: 04-23-2021, 12:06:58
User: Valued Ocean Optics Customer
Spectrometer Serial Number: USB2E5007
Spectrometer Channel: Master
Integration Time (msec): 45
Spectra Averaged: 20
Boxcar Smoothing: 0
Correct for Electrical Dark: Disabled
Time Normalized: Disabled
Dual-beam Reference: Disabled
Reference Channel: Master
Temperature: Not acquired
Spectrometer Type: S2000
ADC Type: USB2000
Number of Pixels in File: 2048
Graph Title: 
>>>>>Begin Spectral Data<<<<<
340.15	0.000
340.52	122.500
340.90	124.000
341.27	124.900
341.64	125.900
342.01	130.150
342.38	130.250
342.76	132.250
343.13	134.500
343.50	133.350
343.87	133.950
344.24	133.650
344.61	134.200
344.98	132.900
345.36	133.950
345.73	134.300
346.10	132.950
346.47	133.650
346.84	132.300
347.21	132.700
347.58	132.600
347.96	135.900
348.33	132.900
348.70	132.250
349.07	132.300
349.44	132.500
349.81	135.700
350.18	134.650
350.55	133.600
350.92	134.750
351.30	133.950
351.67	133.850
352.04	133.900
352.41	133.350
352.78	134.500
353.15	135.300
353.52	134.600
353.89	135.700
354.26	134.100
354.63	134.450
355.00	134.600
355.37	134.750
355.75	134.900
356.12	135.050
356.49	135.100
356.86	135.550
357.23	134.650
357.60	135.000
357.97	134.100
358.34	135.500
358.71	136.400
359.08	136.000
359.45	134.550
359.82	135.000
360.19	136.050
360.56	135.850
360.93	135.850
361.30	135.650
361.67	135.350
362.04	136.700
362.41	136.300
362.78	135.650
363.15	137.300
363.52	137.200
363.89	136.500
364.26	135.400
364.63	134.650
365.00	135.050
365.37	136.050
365.74	136.250
366.11	136.200
366.48	137.750
366.85	136.050
367.22	136.750
367.59	137.900
367.96	137.150
368.33	137.000
368.70	137.000
369.07	136.950
369.44	137.200
369.81	137.750
370.18	138.700
370.55	137.250
370.92	137.050
371.29	137.300
371.66	137.500
372.03	137.900
372.40	138.300
372.77	138.650
373.13	137.150
373.50	138.150
373.87	136.600
374.24	137.700
374.61	137.650
374.98	138.100
375.35	137.050
375.72	137.650
376.09	137.500
376.46	137.550
376.83	136.850
377.20	137.300
377.56	137.950
377.93	137.950
378.30	138.150
378.67	137.500
379.04	138.150
379.41	137.950
379.78	137.600
380.15	140.050
380.51	138.650
380.88	137.950
381.25	137.750
381.62	139.250
381.99	138.200
382.36	138.050
382.73	137.350
383.09	139.450
383.46	138.400
383.83	138.700
384.20	138.950
384.57	140.100
384.94	139.150
385.31	138.450
385.67	139.200
386.04	138.650
386.41	138.700
386.78	139.050
387.15	138.850
387.51	140.550
387.88	138.100
388.25	138.950
388.62	139.350
388.99	139.250
389.36	139.100
389.72	139.050
390.09	141.150
390.46	140.100
390.83	139.550
391.19	139.250
391.56	139.050
391.93	138.450
392.30	139.250
392.67	138.600
393.03	138.750
393.40	139.900
393.77	139.000
394.14	140.050
394.50	138.800
394.87	140.000
395.24	139.600
395.61	139.200
395.97	140.150
396.34	138.550
396.71	138.150
397.08	141.350
397.44	140.150
397.81	140.250
398.18	139.350
398.55	139.150
398.91	140.450
399.28	139.550
399.65	141.400
400.01	142.200
400.38	140.850
400.75	139.500
401.12	140.200
401.48	139.550
401.85	140.850
402.22	140.750
402.58	139.450
402.95	141.200
403.32	140.750
403.68	139.600
404.05	139.900
404.42	139.250
404.78	139.500
405.15	139.950
405.52	140.750
405.88	139.500
406.25	140.150
406.62	139.400
406.98	139.200
407.35	140.450
407.72	140.850
408.08	141.400
408.45	141.200
408.82	140.400
409.18	140.300
409.55	140.700
409.91	141.000
410.28	140.200
410.65	139.300
411.01	140.650
411.38	140.500
411.75	140.600
412.11	141.300
412.48	141.400
412.84	142.100
413.21	140.850
413.58	140.650
413.94	141.050
414.31	141.200
414.67	141.750
415.04	141.500
415.41	141.500
415.77	141.800
416.14	142.250
416.50	141.250
416.87	141.900
417.23	141.200
417.60	142.900
417.97	142.350
418.33	141.900
418.70	142.700
419.06	144.350
419.43	144.200
419.79	143.300
420.16	143.250
420.52	144.350
420.89	144.400
421.25	144.300
421.62	145.100
421.98	144.300
422.35	145.200
422.72	144.600
423.08	146.350
423.45	146.950
423.81	147.350
424.18	148.350
424.54	148.450
424.91	149.450
425.27	150.450
425.64	150.300
426.00	152.200
426.37	152.250
426.73	153.000
427.09	153.600
427.46	155.600
427.82	157.450
428.19	156.950
428.55	158.600
428.92	159.200
429.28	162.450
429.65	163.550
430.01	168.050
430.38	167.000
430.74	166.950
431.11	171.600
431.47	176.500
431.83	176.450
432.20	180.700
432.56	182.950
432.93	186.950
433.29	190.800
433.66	194.400
434.02	203.900
434.38	201.050
434.75	206.400
435.11	205.650
435.48	213.300
435.84	214.000
436.20	223.450
436.57	226.450
436.93	232.500
437.30	242.050
437.66	243.500
438.02	260.700
438.39	267.400
438.75	271.300
439.12	287.450
439.48	295.650
439.84	300.950
440.21	310.700
440.57	318.900
440.93	355.200
441.30	358.350
441.66	365.000
442.02	388.750
442.39	393.400
442.75	414.750
443.11	423.200
443.48	446.400
443.84	466.350
444.20	473.750
444.57	527.000
444.93	544.450
445.29	588.900
445.66	587.650
446.02	625.650
446.38	681.900
446.75	703.700
447.11	741.350
447.47	743.200
447.84	782.650
448.20	856.650
448.56	911.650
448.92	950.200
449.29	972.650
449.65	1002.750
450.01	1058.350
450.37	1055.000
450.74	1126.700
451.10	1185.000
451.46	1243.300
451.83	1209.800
452.19	1256.700
452.55	1227.400
452.91	1330.000
453.28	1374.550
453.64	1420.600
454.00	1431.050
454.36	1318.400
454.72	1448.400
455.09	1410.850
455.45	1441.200
455.81	1421.950
456.17	1395.850
456.54	1394.650
456.90	1398.750
457.26	1315.400
457.62	1327.650
457.98	1323.150
458.35	1318.750
458.71	1238.050
459.07	1224.950
459.43	1156.300
459.79	1149.450
460.16	1072.950
460.52	1048.500
460.88	1036.350
461.24	1032.350
461.60	1000.800
461.96	1004.900
462.33	947.650
462.69	914.000
463.05	879.500
463.41	885.000
463.77	853.100
464.13	809.500
464.49	825.450
464.86	797.250
465.22	774.250
465.58	766.050
465.94	772.500
466.30	738.100
466.66	748.900
467.02	745.300
467.38	720.650
467.75	705.900
468.11	689.100
468.47	678.400
468.83	677.000
469.19	671.000
469.55	663.250
469.91	639.700
470.27	605.850
470.63	618.300
470.99	611.950
471.35	588.150
471.72	585.150
472.08	576.050
472.44	560.300
472.80	538.800
473.16	539.150
473.52	522.850
473.88	507.650
474.24	495.750
474.60	489.450
474.96	476.900
475.32	465.700
475.68	448.800
476.04	444.600
476.40	430.600
476.76	424.800
477.12	408.050
477.48	401.400
477.84	398.300
478.20	385.650
478.56	379.800
478.92	370.050
479.28	363.250
479.64	356.800
480.00	352.850
480.36	349.550
480.72	341.100
481.08	337.350
481.44	331.300
481.80	326.350
482.16	321.400
482.52	316.400
482.88	311.200
483.24	308.750
483.60	307.900
483.96	300.750
484.32	298.900
484.68	292.700
485.04	292.150
485.40	288.100
485.76	282.950
486.12	281.600
486.48	278.850
486.83	272.600
487.19	269.850
487.55	266.200
487.91	265.600
488.27	259.800
488.63	258.350
488.99	253.050
489.35	249.150
489.71	244.400
490.07	242.950
490.43	236.300
490.78	234.850
491.14	231.150
491.50	227.150
491.86	224.150
492.22	219.950
492.58	215.550
492.94	213.400
493.30	211.100
493.65	208.150
494.01	204.850
494.37	203.050
494.73	201.150
495.09	199.250
495.45	194.950
495.80	194.500
496.16	191.500
496.52	188.400
496.88	186.500
497.24	184.700
497.60	184.750
497.95	180.550
498.31	180.050
498.67	178.100
499.03	178.150
499.39	175.000
499.74	174.900
500.10	173.100
500.46	172.050
500.82	170.050
501.18	171.500
501.53	169.200
501.89	168.050
502.25	166.800
502.61	164.450
502.96	165.100
503.32	163.900
503.68	165.900
504.04	161.800
504.40	160.950
504.75	161.750
505.11	160.050
505.47	159.650
505.82	161.300
506.18	157.150
506.54	157.400
506.90	158.000
507.25	156.150
507.61	155.250
507.97	155.100
508.33	154.250
508.68	154.300
509.04	153.750
509.40	153.450
509.75	151.050
510.11	152.750
510.47	153.000
510.82	151.900
511.18	150.750
511.54	149.450
511.89	149.900
512.25	149.800
512.61	149.700
512.96	149.900
513.32	148.450
513.68	147.650
514.03	147.450
514.39	147.650
514.75	146.950
515.10	150.200
515.46	147.750
515.82	146.500
516.17	146.150
516.53	146.400
516.89	145.900
517.24	144.100
517.60	144.300
517.95	145.150
518.31	144.850
518.67	145.650
519.02	145.100
519.38	144.800
519.73	143.200
520.09	144.350
520.45	143.500
520.80	143.850
521.16	143.700
521.51	143.000
521.87	142.050
522.22	142.150
522.58	143.200
522.94	143.050
523.29	141.600
523.65	141.400
524.00	143.550
524.36	143.800
524.71	142.200
525.07	141.450
525.42	140.850
525.78	142.050
526.14	140.800
526.49	142.350
526.85	142.750
527.20	141.650
527.56	142.100
527.91	140.950
528.27	141.450
528.62	141.300
528.98	141.000
529.33	140.200
529.69	139.750
530.04	140.400
530.40	140.750
530.75	141.600
531.11	142.150
531.46	141.150
531.81	140.650
532.17	139.550
532.52	140.600
532.88	140.150
533.23	140.650
533.59	141.950
533.94	140.750
534.30	139.050
534.65	139.650
535.01	141.750
535.36	141.850
535.71	139.750
536.07	140.400
536.42	141.800
536.78	141.050
537.13	142.200
537.48	142.550
537.84	143.150
538.19	145.050
538.55	146.250
538.90	147.000
539.25	152.350
539.61	155.500
539.96	156.000
540.32	155.300
540.67	152.550
541.02	152.050
541.38	150.850
541.73	151.250
542.08	151.700
542.44	150.300
542.79	149.350
543.15	150.000
543.50	155.100
543.85	160.350
544.21	161.450
544.56	159.450
544.91	155.950
545.27	151.950
545.62	149.100
545.97	149.700
546.32	146.100
546.68	145.900
547.03	144.800
547.38	146.950
547.74	144.250
548.09	144.300
548.44	142.000
548.80	142.100
549.15	142.550
549.50	141.200
549.85	143.450
550.21	140.600
550.56	141.300
550.91	142.400
551.26	139.550
551.62	140.600
551.97	139.200
552.32	138.750
552.67	138.300
553.03	138.450
553.38	138.400
553.73	138.850
554.08	138.400
554.44	138.750
554.79	139.200
555.14	139.500
555.49	138.500
555.85	139.200
556.20	136.900
556.55	137.750
556.90	137.700
557.25	137.900
557.61	137.300
557.96	139.050
558.31	137.350
558.66	138.150
559.01	137.250
559.36	138.350
559.72	137.800
560.07	137.600
560.42	137.550
560.77	137.800
561.12	137.150
561.47	138.450
561.83	137.650
562.18	137.450
562.53	137.400
562.88	137.450
563.23	138.800
563.58	138.000
563.93	136.550
564.28	139.400
564.64	138.550
564.99	136.700
565.34	136.150
565.69	139.950
566.04	137.450
566.39	136.950
566.74	137.950
567.09	137.450
567.44	138.550
567.79	137.200
568.14	138.250
568.50	136.600
568.85	138.250
569.20	136.150
569.55	137.550
569.90	137.800
570.25	137.800
570.60	137.300
570.95	138.250
571.30	137.100
571.65	136.450
572.00	137.350
572.35	138.600
572.70	136.500
573.05	136.550
573.40	137.100
573.75	136.900
574.10	137.850
574.45	138.500
574.80	138.650
575.15	138.850
575.50	138.050
575.85	137.550
576.20	137.950
576.55	137.900
576.90	139.300
577.25	138.650
577.60	139.300
577.95	138.250
578.30	139.600
578.65	138.700
579.00	138.150
579.35	139.500
579.70	139.400
580.05	138.700
580.40	140.200
580.74	140.550
581.09	138.500
581.44	138.750
581.79	140.100
582.14	139.400
582.49	139.900
582.84	140.650
583.19	139.600
583.54	140.450
583.89	139.950
584.24	139.350
584.58	138.900
584.93	139.850
585.28	141.100
585.63	139.950
585.98	140.650
586.33	139.750
586.68	140.250
587.03	139.850
587.37	138.900
587.72	137.950
588.07	136.700
588.42	138.550
588.77	138.050
589.12	138.500
589.46	138.850
589.81	138.500
590.16	137.450
590.51	138.000
590.86	137.950
591.21	139.400
591.55	139.150
591.90	138.300
592.25	138.600
592.60	138.700
592.95	138.300
593.29	137.800
593.64	138.300
593.99	138.150
594.34	138.400
594.68	138.500
595.03	138.050
595.38	138.500
595.73	137.250
596.07	136.950
596.42	137.400
596.77	137.550
597.12	137.700
597.46	138.550
597.81	137.550
598.16	138.150
598.51	139.300
598.85	138.500
599.20	136.550
599.55	136.850
599.90	136.850
600.24	136.450
600.59	136.550
600.94	136.050
601.28	137.350
601.63	136.500
601.98	136.450
602.32	135.250
602.67	136.800
603.02	137.850
603.36	137.750
603.71	136.850
604.06	138.500
604.40	137.900
604.75	139.200
605.10	137.850
605.44	138.550
605.79	137.800
606.14	137.600
606.48	138.750
606.83	137.900
607.17	138.200
607.52	140.500
607.87	140.800
608.21	142.950
608.56	144.700
608.90	155.150
609.25	158.100
609.60	159.800
609.94	157.300
610.29	154.850
610.63	151.200
610.98	148.000
611.33	147.450
611.67	145.950
612.02	145.700
612.36	144.150
612.71	143.200
613.05	143.250
613.40	142.500
613.74	141.400
614.09	140.950
614.44	139.900
614.78	139.150
615.13	139.300
615.47	138.550
615.82	139.350
616.16	137.400
616.51	139.100
616.85	138.200
617.20	138.800
617.54	139.500
617.89	138.400
618.23	136.800
618.58	137.800
618.92	137.950
619.27	138.700
619.61	138.300
619.96	138.750
620.30	139.000
620.64	138.800
620.99	139.150
621.33	138.600
621.68	139.450
622.02	139.500
622.37	137.750
622.71	138.200
623.06	137.350
623.40	138.650
623.74	138.550
624.09	139.750
624.43	139.200
624.78	138.150
625.12	137.000
625.46	138.300
625.81	137.950
626.15	138.250
626.50	138.150
626.84	137.000
627.18	139.750
627.53	138.250
627.87	137.750
628.21	138.800
628.56	138.700
628.90	137.850
629.25	138.400
629.59	138.200
629.93	138.250
630.28	138.800
630.62	137.050
630.96	138.000
631.31	136.200
631.65	137.200
631.99	136.350
632.34	137.000
632.68	136.250
633.02	136.200
633.36	137.200
633.71	136.300
634.05	137.200
634.39	136.150
634.74	136.800
635.08	136.150
635.42	134.300
635.76	136.750
636.11	135.600
636.45	138.100
636.79	136.750
637.14	135.200
637.48	136.100
637.82	136.800
638.16	135.100
638.50	135.750
638.85	135.750
639.19	136.850
639.53	137.300
639.87	135.600
640.22	135.800
640.56	135.800
640.90	135.900
641.24	135.550
641.58	135.100
641.93	134.750
642.27	137.300
642.61	137.200
642.95	136.000
643.29	135.750
643.64	135.400
643.98	136.050
644.32	135.800
644.66	136.000
645.00	134.700
645.34	136.000
645.68	136.450
646.03	136.400
646.37	137.000
646.71	137.350
647.05	137.250
647.39	136.100
647.73	137.350
648.07	137.600
648.42	138.150
648.76	136.700
649.10	137.400
649.44	137.800
649.78	136.250
650.12	136.900
650.46	136.200
650.80	135.850
651.14	137.550
651.48	137.200
651.82	136.700
652.16	138.000
652.51	136.250
652.85	134.600
653.19	135.500
653.53	136.350
653.87	134.800
654.21	135.400
654.55	135.700
654.89	136.000
655.23	136.200
655.57	136.700
655.91	136.400
656.25	136.600
656.59	135.500
656.93	135.450
657.27	135.250
657.61	137.600
657.95	137.000
658.29	135.500
658.63	135.800
658.97	135.900
659.31	137.250
659.65	135.550
659.99	136.100
660.33	137.600
660.67	136.300
661.01	136.750
661.35	136.000
661.68	137.300
662.02	136.050
662.36	135.650
662.70	136.250
663.04	136.300
663.38	136.250
663.72	135.750
664.06	136.500
664.40	135.650
664.74	135.500
665.08	136.600
665.42	136.400
665.75	135.300
666.09	135.900
666.43	139.750
666.77	136.150
667.11	135.100
667.45	136.500
667.79	137.000
668.12	136.200
668.46	135.450
668.80	134.850
669.14	135.750
669.48	136.300
669.82	136.700
670.16	136.750
670.49	135.500
670.83	136.300
671.17	135.150
671.51	135.350
671.85	135.950
672.18	135.800
672.52	135.500
672.86	134.850
673.20	134.850
673.54	135.550
673.87	135.500
674.21	135.700
674.55	135.400
674.89	135.900
675.22	136.200
675.56	137.100
675.90	136.450
676.24	136.300
676.57	135.200
676.91	136.700
677.25	135.350
677.59	135.750
677.92	134.900
678.26	135.600
678.60	135.350
678.93	135.750
679.27	135.350
679.61	135.100
679.95	136.300
680.28	135.850
680.62	135.600
680.96	135.100
681.29	135.800
681.63	135.200
681.97	134.750
682.30	135.950
682.64	136.300
682.98	135.600
683.31	136.900
683.65	136.000
683.99	134.700
684.32	135.350
684.66	135.750
685.00	136.200
685.33	135.850
685.67	134.650
686.00	135.750
686.34	135.600
686.68	137.600
687.01	136.550
687.35	135.250
687.68	136.900
688.02	135.800
688.36	135.800
688.69	136.050
689.03	135.700
689.36	136.800
689.70	135.950
690.03	136.200
690.37	135.650
690.71	135.150
691.04	135.600
691.38	135.850
691.71	135.850
692.05	135.850
692.38	135.650
692.72	135.250
693.05	136.800
693.39	135.950
693.72	135.250
694.06	134.350
694.39	134.350
694.73	134.850
695.06	135.650
695.40	136.000
695.73	135.750
696.07	137.200
696.40	135.550
696.74	137.650
697.07	137.150
697.41	134.850
697.74	137.050
698.08	135.450
698.41	136.400
698.74	136.600
699.08	135.400
699.41	136.150
699.75	135.100
700.08	134.300
700.42	135.200
700.75	134.500
701.08	135.800
701.42	135.550
701.75	136.200
702.09	137.250
702.42	138.300
702.75	136.300
703.09	135.000
703.42	134.700
703.75	134.850
704.09	136.050
704.42	137.050
704.76	136.350
705.09	136.100
705.42	135.300
705.76	136.700
706.09	136.150
706.42	138.600
706.76	136.200
707.09	135.350
707.42	136.150
707.76	136.250
708.09	134.750
708.42	135.550
708.75	137.250
709.09	135.550
709.42	136.400
709.75	136.300
710.09	137.650
710.42	136.100
710.75	135.800
711.08	136.200
711.42	137.600
711.75	136.300
712.08	135.300
712.41	135.750
712.75	135.950
713.08	135.200
713.41	136.650
713.74	135.600
714.08	135.600
714.41	135.900
714.74	135.100
715.07	136.700
715.41	135.450
715.74	136.400
716.07	135.500
716.40	136.650
716.73	135.800
717.06	134.750
717.40	135.050
717.73	135.050
718.06	137.400
718.39	136.700
718.72	136.050
719.05	135.050
719.39	136.500
719.72	135.500
720.05	135.150
720.38	135.350
720.71	135.250
721.04	135.850
721.37	135.700
721.71	134.950
722.04	134.050
722.37	135.750
722.70	135.400
723.03	136.250
723.36	134.400
723.69	134.450
724.02	135.000
724.35	135.550
724.68	136.600
725.01	134.300
725.35	134.500
725.68	135.200
726.01	134.750
726.34	136.200
726.67	136.050
727.00	135.450
727.33	136.050
727.66	135.650
727.99	135.550
728.32	135.450
728.65	135.600
728.98	135.350
729.31	135.950
729.64	135.450
729.97	134.400
730.30	135.350
730.63	135.700
730.96	135.750
731.29	134.700
731.62	136.300
731.95	136.950
732.28	136.050
732.61	135.750
732.94	136.500
733.27	136.100
733.60	135.200
733.93	135.400
734.25	134.700
734.58	135.100
734.91	134.950
735.24	135.550
735.57	135.500
735.90	136.350
736.23	136.250
736.56	136.000
736.89	135.050
737.22	135.400
737.55	135.950
737.87	137.450
738.20	135.000
738.53	135.000
738.86	136.000
739.19	135.500
739.52	136.750
739.85	135.100
740.17	135.000
740.50	135.100
740.83	135.150
741.16	134.500
741.49	135.750
741.82	135.850
742.14	134.950
742.47	136.100
742.80	135.400
743.13	134.650
743.46	136.300
743.78	136.200
744.11	135.350
744.44	136.100
744.77	136.400
745.10	135.850
745.42	136.700
745.75	135.800
746.08	136.200
746.41	135.650
746.73	134.550
747.06	136.450
747.39	135.200
747.72	135.050
748.04	135.400
748.37	135.600
748.70	134.700
749.02	136.750
749.35	136.050
749.68	134.300
750.01	135.700
750.33	138.000
750.66	135.750
750.99	136.300
751.31	135.200
751.64	134.800
751.97	134.600
752.29	136.900
752.62	134.600
752.95	136.050
753.27	136.100
753.60	136.350
753.93	135.650
754.25	136.300
754.58	136.250
754.91	135.800
755.23	136.150
755.56	138.450
755.88	136.550
756.21	135.950
756.54	134.500
756.86	135.100
757.19	134.900
757.51	135.500
757.84	136.250
758.17	135.500
758.49	136.450
758.82	134.500
759.14	135.100
759.47	135.400
759.79	136.050
760.12	135.950
760.44	135.250
760.77	134.750
761.09	134.600
761.42	135.550
761.75	136.800
762.07	136.100
762.40	135.150
762.72	135.850
763.05	136.450
763.37	135.900
763.70	134.850
764.02	136.450
764.35	134.900
764.67	133.950
764.99	135.600
765.32	135.550
765.64	134.600
765.97	135.300
766.29	134.950
766.62	134.050
766.94	137.750
767.27	136.650
767.59	135.400
767.91	135.650
768.24	136.500
768.56	135.300
768.89	135.750
769.21	135.050
769.54	135.900
769.86	135.800
770.18	134.650
770.51	135.300
770.83	136.000
771.15	136.950
771.48	135.100
771.80	134.500
772.13	135.250
772.45	136.400
772.77	136.050
773.10	136.300
773.42	135.650
773.74	134.850
774.07	135.350
774.39	135.900
774.71	134.450
775.04	135.900
775.36	135.150
775.68	136.050
776.01	134.250
776.33	134.650
776.65	134.700
776.97	134.550
777.30	136.500
777.62	136.400
777.94	135.850
778.26	135.150
778.59	135.400
778.91	134.750
779.23	135.650
779.55	135.800
779.88	136.700
780.20	135.800
780.52	134.650
780.84	133.900
781.17	133.950
781.49	135.250
781.81	135.800
782.13	135.400
782.45	136.750
782.78	135.250
783.10	135.900
783.42	135.850
783.74	134.500
784.06	134.750
784.39	134.050
784.71	135.850
785.03	136.000
785.35	136.150
785.67	135.400
785.99	134.050
786.31	135.150
786.64	134.950
786.96	135.250
787.28	135.200
787.60	135.150
787.92	134.550
788.24	135.350
788.56	136.050
788.88	134.500
789.20	136.850
789.53	135.450
789.85	135.650
790.17	135.000
790.49	134.850
790.81	135.950
791.13	135.800
791.45	135.450
