OOIBase32 Version 2.0.6.5 Data File
++++++++++++++++++++++++++++++++++++
Date: 03-26-2021, 17:46:21
User: Valued Ocean Optics Customer
Spectrometer Serial Number: USB2E5007
Spectrometer Channel: Master
Integration Time (msec): 45
Spectra Averaged: 20
Boxcar Smoothing: 0
Correct for Electrical Dark: Disabled
Time Normalized: Disabled
Dual-beam Reference: Disabled
Reference Channel: Master
Temperature: Not acquired
Spectrometer Type: S2000
ADC Type: USB2000
Number of Pixels in File: 2048
Graph Title: 
>>>>>Begin Spectral Data<<<<<
340.15	0.000
340.52	156.350
340.90	157.250
341.27	157.900
341.64	158.550
342.01	162.400
342.38	162.750
342.76	165.250
343.13	167.600
343.50	165.450
343.87	165.500
344.24	164.750
344.61	166.400
344.98	164.500
345.36	166.000
345.73	167.050
346.10	165.200
346.47	167.150
346.84	164.950
347.21	165.400
347.58	165.900
347.96	167.750
348.33	164.900
348.70	164.350
349.07	165.300
349.44	167.650
349.81	168.650
350.18	169.100
350.55	167.450
350.92	166.950
351.30	168.650
351.67	167.350
352.04	167.100
352.41	166.500
352.78	169.700
353.15	167.750
353.52	167.850
353.89	170.500
354.26	168.950
354.63	168.450
355.00	170.050
355.37	167.650
355.75	168.900
356.12	167.750
356.49	169.650
356.86	169.600
357.23	170.050
357.60	169.050
357.97	168.700
358.34	169.150
358.71	170.350
359.08	168.750
359.45	169.100
359.82	169.300
360.19	171.200
360.56	169.700
360.93	170.300
361.30	168.700
361.67	168.800
362.04	169.650
362.41	170.250
362.78	170.500
363.15	170.300
363.52	172.100
363.89	170.750
364.26	169.100
364.63	170.550
365.00	169.500
365.37	169.350
365.74	169.400
366.11	171.550
366.48	172.000
366.85	170.050
367.22	171.000
367.59	173.100
367.96	169.050
368.33	170.250
368.70	171.650
369.07	172.000
369.44	172.500
369.81	171.800
370.18	171.550
370.55	170.750
370.92	172.350
371.29	172.300
371.66	171.800
372.03	172.150
372.40	170.600
372.77	172.400
373.13	171.150
373.50	172.000
373.87	171.050
374.24	172.700
374.61	171.600
374.98	172.050
375.35	171.850
375.72	172.700
376.09	173.050
376.46	172.100
376.83	171.650
377.20	171.300
377.56	173.950
377.93	173.350
378.30	173.900
378.67	171.650
379.04	173.300
379.41	174.000
379.78	173.150
380.15	174.750
380.51	172.350
380.88	173.400
381.25	171.850
381.62	173.450
381.99	172.450
382.36	173.300
382.73	172.250
383.09	173.850
383.46	172.250
383.83	173.550
384.20	172.550
384.57	174.400
384.94	173.850
385.31	172.650
385.67	174.600
386.04	173.150
386.41	173.000
386.78	174.300
387.15	176.100
387.51	174.100
387.88	174.450
388.25	173.150
388.62	173.800
388.99	173.850
389.36	175.500
389.72	174.550
390.09	179.800
390.46	174.400
390.83	173.700
391.19	175.200
391.56	173.950
391.93	174.650
392.30	174.950
392.67	173.950
393.03	174.950
393.40	175.450
393.77	174.900
394.14	175.400
394.50	174.750
394.87	174.050
395.24	174.500
395.61	174.700
395.97	173.800
396.34	173.950
396.71	174.700
397.08	177.150
397.44	174.650
397.81	175.700
398.18	175.950
398.55	176.200
398.91	175.800
399.28	175.500
399.65	176.900
400.01	176.750
400.38	175.750
400.75	175.550
401.12	175.850
401.48	173.700
401.85	175.950
402.22	175.450
402.58	175.800
402.95	178.400
403.32	176.150
403.68	176.050
404.05	175.550
404.42	174.300
404.78	176.100
405.15	176.850
405.52	177.000
405.88	175.650
406.25	175.350
406.62	174.200
406.98	175.850
407.35	175.750
407.72	175.200
408.08	176.600
408.45	176.900
408.82	177.500
409.18	177.200
409.55	177.150
409.91	177.200
410.28	176.050
410.65	175.800
411.01	175.150
411.38	175.900
411.75	175.600
412.11	176.200
412.48	176.700
412.84	177.700
413.21	176.750
413.58	175.900
413.94	177.850
414.31	176.150
414.67	178.250
415.04	175.900
415.41	177.200
415.77	178.150
416.14	178.000
416.50	176.400
416.87	177.650
417.23	175.850
417.60	177.950
417.97	176.100
418.33	177.150
418.70	176.600
419.06	179.300
419.43	178.450
419.79	177.800
420.16	178.500
420.52	177.750
420.89	178.000
421.25	177.900
421.62	176.600
421.98	179.000
422.35	176.350
422.72	178.150
423.08	178.550
423.45	178.800
423.81	177.300
424.18	177.100
424.54	176.650
424.91	176.600
425.27	178.900
425.64	178.600
426.00	178.950
426.37	178.750
426.73	176.900
427.09	177.100
427.46	178.450
427.82	180.100
428.19	177.500
428.55	178.700
428.92	178.250
429.28	179.600
429.65	177.700
430.01	180.050
430.38	177.350
430.74	177.400
431.11	179.000
431.47	180.500
431.83	181.150
432.20	178.900
432.56	181.550
432.93	179.100
433.29	180.350
433.66	183.000
434.02	184.700
434.38	183.150
434.75	181.400
435.11	179.900
435.48	178.600
435.84	179.550
436.20	178.600
436.57	179.400
436.93	179.550
437.30	180.650
437.66	178.800
438.02	180.400
438.39	178.850
438.75	179.000
439.12	181.050
439.48	179.500
439.84	181.800
440.21	179.700
440.57	178.600
440.93	179.000
441.30	177.700
441.66	179.900
442.02	179.050
442.39	179.150
442.75	180.300
443.11	178.900
443.48	179.750
443.84	180.950
444.20	178.450
444.57	179.100
444.93	181.150
445.29	180.800
445.66	178.150
446.02	179.050
446.38	177.750
446.75	179.750
447.11	179.350
447.47	179.000
447.84	178.400
448.20	180.600
448.56	179.700
448.92	181.000
449.29	180.900
449.65	179.200
450.01	180.900
450.37	180.500
450.74	178.950
451.10	179.300
451.46	177.700
451.83	179.150
452.19	182.550
452.55	178.800
452.91	178.600
453.28	180.250
453.64	180.850
454.00	182.800
454.36	178.600
454.72	180.000
455.09	179.650
455.45	179.050
455.81	180.050
456.17	179.800
456.54	180.900
456.90	180.350
457.26	182.800
457.62	179.900
457.98	179.850
458.35	180.050
458.71	179.800
459.07	180.000
459.43	181.950
459.79	178.150
460.16	179.800
460.52	179.550
460.88	180.750
461.24	180.150
461.60	179.900
461.96	180.900
462.33	180.900
462.69	181.000
463.05	180.350
463.41	179.350
463.77	180.900
464.13	180.800
464.49	180.700
464.86	178.900
465.22	181.450
465.58	179.850
465.94	180.000
466.30	180.950
466.66	183.050
467.02	181.800
467.38	179.950
467.75	181.350
468.11	182.300
468.47	183.150
468.83	179.450
469.19	181.900
469.55	181.750
469.91	181.850
470.27	180.850
470.63	180.050
470.99	180.900
471.35	182.550
471.72	181.350
472.08	180.450
472.44	181.750
472.80	181.000
473.16	183.450
473.52	183.600
473.88	182.400
474.24	182.700
474.60	181.450
474.96	182.200
475.32	181.950
475.68	182.400
476.04	183.250
476.40	184.000
476.76	182.000
477.12	183.200
477.48	183.450
477.84	185.800
478.20	183.000
478.56	183.650
478.92	183.850
479.28	184.400
479.64	183.900
480.00	184.750
480.36	185.150
480.72	185.100
481.08	184.850
481.44	186.250
481.80	185.650
482.16	186.900
482.52	185.000
482.88	188.150
483.24	185.350
483.60	187.650
483.96	185.900
484.32	187.900
484.68	187.350
485.04	187.650
485.40	186.800
485.76	188.550
486.12	188.900
486.48	189.650
486.83	189.650
487.19	188.900
487.55	188.000
487.91	191.200
488.27	190.050
488.63	191.600
488.99	191.400
489.35	192.700
489.71	191.900
490.07	191.100
490.43	191.350
490.78	192.750
491.14	192.050
491.50	191.700
491.86	194.400
492.22	192.550
492.58	193.050
492.94	192.300
493.30	194.200
493.65	195.500
494.01	195.600
494.37	198.200
494.73	196.600
495.09	198.050
495.45	198.550
495.80	199.750
496.16	198.750
496.52	198.800
496.88	200.050
497.24	200.750
497.60	202.000
497.95	198.700
498.31	200.750
498.67	201.250
499.03	202.900
499.39	204.100
499.74	204.200
500.10	205.750
500.46	206.900
500.82	207.550
501.18	210.800
501.53	208.400
501.89	210.150
502.25	212.100
502.61	212.550
502.96	215.250
503.32	218.350
503.68	221.200
504.04	220.250
504.40	221.200
504.75	222.800
505.11	225.200
505.47	227.200
505.82	232.650
506.18	233.350
506.54	233.850
506.90	237.800
507.25	241.050
507.61	246.550
507.97	254.000
508.33	263.550
508.68	276.100
509.04	286.300
509.40	293.800
509.75	290.650
510.11	294.700
510.47	298.400
510.82	299.800
511.18	302.850
511.54	310.400
511.89	311.050
512.25	313.000
512.61	319.950
512.96	321.550
513.32	320.000
513.68	317.000
514.03	317.500
514.39	325.900
514.75	342.350
515.10	359.450
515.46	371.100
515.82	374.800
516.17	382.100
516.53	382.350
516.89	379.800
517.24	384.250
517.60	399.600
517.95	414.300
518.31	419.600
518.67	429.600
519.02	427.400
519.38	440.400
519.73	454.900
520.09	480.000
520.45	508.300
520.80	531.000
521.16	570.600
521.51	593.100
521.87	616.200
522.22	660.800
522.58	723.250
522.94	793.850
523.29	1047.850
523.65	1467.100
524.00	1911.500
524.36	2045.200
524.71	1951.700
525.07	1782.700
525.42	1800.050
525.78	1892.350
526.14	1854.450
526.49	1949.100
526.85	2091.350
527.20	2214.050
527.56	2381.850
527.91	2622.350
528.27	3027.600
528.62	3696.900
528.98	4064.300
529.33	4065.550
529.69	4065.300
530.04	4065.650
530.40	4065.900
530.75	4065.350
531.11	4064.850
531.46	4057.750
531.81	4057.100
532.17	3958.500
532.52	2365.600
532.88	2099.500
533.23	1934.750
533.59	1825.750
533.94	1675.950
534.30	1585.350
534.65	1503.050
535.01	1364.300
535.36	1270.050
535.71	1166.350
536.07	999.950
536.42	895.850
536.78	773.650
537.13	722.800
537.48	672.350
537.84	653.250
538.19	586.250
538.55	562.000
538.90	534.300
539.25	502.550
539.61	473.400
539.96	425.100
540.32	390.100
540.67	363.950
541.02	357.450
541.38	344.400
541.73	337.300
542.08	317.650
542.44	303.100
542.79	297.200
543.15	289.600
543.50	286.150
543.85	281.850
544.21	272.500
544.56	260.900
544.91	252.450
545.27	244.400
545.62	239.200
545.97	235.500
546.32	230.100
546.68	227.150
547.03	222.400
547.38	223.400
547.74	221.200
548.09	217.850
548.44	211.450
548.80	211.550
549.15	205.800
549.50	200.100
549.85	201.300
550.21	198.650
550.56	200.000
550.91	193.850
551.26	195.450
551.62	193.650
551.97	193.150
552.32	188.850
552.67	187.850
553.03	187.650
553.38	186.100
553.73	183.850
554.08	183.200
554.44	181.200
554.79	181.900
555.14	180.100
555.49	179.600
555.85	178.200
556.20	176.650
556.55	176.500
556.90	174.000
557.25	174.000
557.61	173.050
557.96	173.000
558.31	170.200
558.66	171.150
559.01	172.450
559.36	171.850
559.72	170.950
560.07	171.350
560.42	169.700
560.77	170.400
561.12	169.150
561.47	169.100
561.83	166.700
562.18	167.300
562.53	168.700
562.88	167.750
563.23	168.900
563.58	166.750
563.93	167.400
564.28	167.200
564.64	165.950
564.99	167.350
565.34	166.200
565.69	169.450
566.04	165.900
566.39	164.100
566.74	164.950
567.09	164.800
567.44	165.300
567.79	164.750
568.14	163.700
568.50	163.050
568.85	162.700
569.20	163.400
569.55	164.350
569.90	163.650
570.25	161.850
570.60	160.050
570.95	161.900
571.30	161.750
571.65	160.500
572.00	160.350
572.35	161.850
572.70	160.050
573.05	161.050
573.40	160.850
573.75	159.850
574.10	161.250
574.45	161.050
574.80	161.550
575.15	160.900
575.50	161.200
575.85	158.800
576.20	159.850
576.55	159.200
576.90	160.000
577.25	161.100
577.60	159.700
577.95	160.400
578.30	161.250
578.65	160.250
579.00	161.450
579.35	160.800
579.70	159.350
580.05	159.200
580.40	160.650
580.74	161.000
581.09	160.350
581.44	158.600
581.79	161.250
582.14	160.850
582.49	158.500
582.84	159.900
583.19	157.800
583.54	159.450
583.89	160.900
584.24	158.550
584.58	159.350
584.93	157.450
585.28	159.500
585.63	157.400
585.98	158.400
586.33	157.150
586.68	158.650
587.03	158.750
587.37	157.750
587.72	156.800
588.07	156.300
588.42	157.500
588.77	156.350
589.12	157.000
589.46	157.500
589.81	157.200
590.16	155.150
590.51	156.700
590.86	156.650
591.21	156.850
591.55	155.900
591.90	157.000
592.25	157.450
592.60	156.350
592.95	155.500
593.29	155.800
593.64	156.350
593.99	156.800
594.34	155.550
594.68	156.550
595.03	156.250
595.38	155.750
595.73	153.850
596.07	153.450
596.42	154.600
596.77	155.150
597.12	154.800
597.46	153.700
597.81	154.700
598.16	155.500
598.51	155.900
598.85	155.250
599.20	153.600
599.55	154.850
599.90	153.850
600.24	154.950
600.59	155.200
600.94	153.650
601.28	154.400
601.63	155.000
601.98	153.400
602.32	153.950
602.67	154.300
603.02	155.100
603.36	154.900
603.71	155.100
604.06	155.600
604.40	155.700
604.75	155.500
605.10	155.350
605.44	156.700
605.79	157.000
606.14	156.750
606.48	157.350
606.83	156.800
607.17	158.200
607.52	159.450
607.87	160.850
608.21	161.600
608.56	165.000
608.90	171.800
609.25	175.550
609.60	176.300
609.94	175.200
610.29	172.950
610.63	169.450
610.98	169.500
611.33	170.700
611.67	170.350
612.02	174.050
612.36	174.800
612.71	176.300
613.05	177.800
613.40	178.000
613.74	177.000
614.09	178.750
614.44	177.950
614.78	177.950
615.13	180.600
615.47	185.950
615.82	192.100
616.16	202.000
616.51	212.600
616.85	219.900
617.20	226.350
617.54	234.800
617.89	234.800
618.23	236.350
618.58	237.500
618.92	238.700
619.27	247.900
619.61	261.450
619.96	281.150
620.30	309.450
620.64	340.350
620.99	367.550
621.33	391.300
621.68	402.300
622.02	404.650
622.37	398.250
622.71	388.750
623.06	380.800
623.40	379.550
623.74	390.400
624.09	412.000
624.43	444.250
624.78	474.200
625.12	494.750
625.46	508.950
625.81	497.900
626.15	475.250
626.50	434.950
626.84	390.500
627.18	354.600
627.53	325.700
627.87	304.600
628.21	294.900
628.56	293.500
628.90	293.450
629.25	294.750
629.59	297.300
629.93	290.400
630.28	279.000
630.62	264.400
630.96	250.450
631.31	234.450
631.65	222.850
631.99	210.850
632.34	208.500
632.68	206.000
633.02	206.800
633.36	209.850
633.71	214.400
634.05	217.550
634.39	216.700
634.74	215.050
635.08	208.600
635.42	202.250
635.76	197.350
636.11	191.250
636.45	190.100
636.79	186.650
637.14	184.800
637.48	185.550
637.82	188.950
638.16	193.250
638.50	193.400
638.85	194.650
639.19	194.450
639.53	191.150
639.87	184.700
640.22	181.200
640.56	176.650
640.90	174.800
641.24	174.800
641.58	171.000
641.93	173.200
642.27	175.250
642.61	174.700
642.95	176.450
643.29	174.200
643.64	173.500
643.98	169.750
644.32	169.550
644.66	165.200
645.00	163.450
645.34	162.450
645.68	160.050
646.03	162.000
646.37	160.250
646.71	159.600
647.05	162.000
647.39	161.700
647.73	161.350
648.07	159.400
648.42	158.100
648.76	156.900
649.10	156.650
649.44	157.700
649.78	154.050
650.12	154.400
650.46	154.950
650.80	154.600
651.14	156.550
651.48	153.850
651.82	154.700
652.16	155.000
652.51	153.300
652.85	151.800
653.19	153.500
653.53	153.550
653.87	152.850
654.21	151.600
654.55	150.650
654.89	152.700
655.23	153.150
655.57	153.650
655.91	152.400
656.25	152.800
656.59	152.800
656.93	150.850
657.27	151.800
657.61	152.950
657.95	151.050
658.29	150.250
658.63	150.250
658.97	152.400
659.31	152.050
659.65	150.700
659.99	151.300
660.33	152.500
660.67	150.700
661.01	151.550
661.35	150.050
661.68	151.000
662.02	148.650
662.36	147.500
662.70	149.700
663.04	149.650
663.38	150.850
663.72	149.400
664.06	150.000
664.40	148.250
664.74	148.550
665.08	148.600
665.42	148.800
665.75	149.150
666.09	149.150
666.43	151.050
666.77	149.100
667.11	147.450
667.45	148.950
667.79	148.350
668.12	148.450
668.46	148.050
668.80	149.000
669.14	148.950
669.48	147.950
669.82	149.100
670.16	149.450
670.49	148.250
670.83	148.800
671.17	147.400
671.51	147.950
671.85	147.200
672.18	148.350
672.52	147.200
672.86	148.450
673.20	146.850
673.54	148.800
673.87	147.850
674.21	149.700
674.55	148.700
674.89	148.300
675.22	148.400
675.56	148.450
675.90	148.400
676.24	148.400
676.57	147.100
676.91	147.700
677.25	147.400
677.59	146.950
677.92	146.050
678.26	146.400
678.60	146.950
678.93	147.650
679.27	146.700
679.61	146.600
679.95	146.300
680.28	147.000
680.62	146.400
680.96	146.750
681.29	148.000
681.63	148.550
681.97	146.300
682.30	147.050
682.64	147.400
682.98	147.400
683.31	148.900
683.65	148.200
683.99	147.150
684.32	146.700
684.66	147.200
685.00	147.500
685.33	148.400
685.67	146.000
686.00	147.500
686.34	146.800
686.68	149.200
687.01	147.750
687.35	146.350
687.68	147.600
688.02	146.900
688.36	147.300
688.69	147.050
689.03	147.600
689.36	147.100
689.70	147.000
690.03	146.900
690.37	146.200
690.71	145.900
691.04	146.950
691.38	147.000
691.71	148.000
692.05	146.850
692.38	146.350
692.72	146.600
693.05	147.700
693.39	147.950
693.72	147.650
694.06	145.350
694.39	146.050
694.73	145.650
695.06	145.700
695.40	145.700
695.73	145.850
696.07	146.450
696.40	146.550
696.74	148.850
697.07	148.100
697.41	145.200
697.74	147.050
698.08	146.150
698.41	146.250
698.74	147.300
699.08	147.050
699.41	148.550
699.75	147.250
700.08	146.550
700.42	146.850
700.75	147.100
701.08	146.050
701.42	146.000
701.75	147.200
702.09	148.500
702.42	149.400
702.75	146.800
703.09	146.350
703.42	145.400
703.75	145.900
704.09	147.000
704.42	147.750
704.76	146.650
705.09	147.450
705.42	147.300
705.76	147.550
706.09	146.400
706.42	149.300
706.76	148.600
707.09	146.150
707.42	146.400
707.76	147.500
708.09	146.100
708.42	147.400
708.75	147.750
709.09	146.800
709.42	146.550
709.75	147.150
710.09	147.550
710.42	146.600
710.75	146.250
711.08	147.150
711.42	148.400
711.75	146.900
712.08	146.750
712.41	146.000
712.75	146.700
713.08	146.600
713.41	146.700
713.74	147.250
714.08	147.000
714.41	147.000
714.74	145.550
715.07	147.400
715.41	145.300
715.74	147.600
716.07	146.900
716.40	146.850
716.73	146.500
717.06	144.700
717.40	147.050
717.73	144.950
718.06	147.100
718.39	146.950
718.72	146.150
719.05	146.550
719.39	146.600
719.72	146.950
720.05	147.100
720.38	146.200
720.71	146.400
721.04	146.550
721.37	146.950
721.71	145.800
722.04	144.900
722.37	145.250
722.70	146.750
723.03	146.400
723.36	145.750
723.69	145.950
724.02	147.000
724.35	145.550
724.68	147.050
725.01	146.050
725.35	146.650
725.68	146.300
726.01	146.750
726.34	146.350
726.67	145.750
727.00	146.200
727.33	147.150
727.66	146.950
727.99	146.200
728.32	145.400
728.65	147.200
728.98	146.400
729.31	146.100
729.64	145.750
729.97	145.550
730.30	146.100
730.63	146.550
730.96	146.700
731.29	144.950
731.62	145.750
731.95	147.600
732.28	147.350
732.61	146.650
732.94	146.700
733.27	147.050
733.60	146.550
733.93	145.550
734.25	146.050
734.58	145.950
734.91	146.750
735.24	145.400
735.57	147.350
735.90	146.550
736.23	146.650
736.56	145.750
736.89	146.200
737.22	145.950
737.55	146.950
737.87	147.350
738.20	146.050
738.53	146.150
738.86	145.200
739.19	145.650
739.52	147.200
739.85	146.500
740.17	144.450
740.50	146.150
740.83	145.000
741.16	145.350
741.49	147.600
741.82	145.950
742.14	146.050
742.47	146.200
742.80	146.650
743.13	145.650
743.46	147.850
743.78	146.800
744.11	146.100
744.44	146.700
744.77	147.500
745.10	146.400
745.42	146.750
745.75	146.900
746.08	146.050
746.41	146.250
746.73	146.650
747.06	147.550
747.39	146.500
747.72	145.150
748.04	145.250
748.37	146.800
748.70	146.650
749.02	146.950
749.35	147.200
749.68	146.000
750.01	147.050
750.33	148.450
750.66	146.150
750.99	148.100
751.31	145.200
751.64	145.100
751.97	146.700
752.29	147.050
752.62	146.250
752.95	146.150
753.27	146.750
753.60	146.250
753.93	146.300
754.25	145.450
754.58	145.800
754.91	145.350
755.23	147.450
755.56	149.200
755.88	147.200
756.21	146.300
756.54	146.300
756.86	145.900
757.19	147.150
757.51	145.300
757.84	147.500
758.17	145.750
758.49	145.000
758.82	145.150
759.14	146.150
759.47	146.200
759.79	146.600
760.12	146.100
760.44	146.100
760.77	145.000
761.09	145.400
761.42	146.200
761.75	146.950
762.07	145.300
762.40	145.950
762.72	146.700
763.05	146.800
763.37	145.700
763.70	144.400
764.02	146.900
764.35	145.350
764.67	145.650
764.99	147.100
765.32	145.950
765.64	145.150
765.97	145.900
766.29	146.100
766.62	145.600
766.94	147.300
767.27	147.250
767.59	145.800
767.91	145.700
768.24	146.850
768.56	146.250
768.89	146.150
769.21	147.800
769.54	150.200
769.86	149.750
770.18	148.800
770.51	146.050
770.83	146.000
771.15	146.800
771.48	145.950
771.80	146.050
772.13	145.950
772.45	145.350
772.77	146.500
773.10	145.800
773.42	145.300
773.74	146.150
774.07	146.500
774.39	146.250
774.71	146.250
775.04	147.400
775.36	145.200
775.68	144.650
776.01	145.100
776.33	145.200
776.65	145.800
776.97	146.150
777.30	147.400
777.62	145.900
777.94	146.350
778.26	145.300
778.59	145.550
778.91	145.900
779.23	145.900
779.55	145.800
779.88	146.750
780.20	146.250
780.52	145.400
780.84	145.250
781.17	145.750
781.49	145.900
781.81	145.300
782.13	146.150
782.45	146.900
782.78	145.150
783.10	144.950
783.42	145.600
783.74	145.300
784.06	146.250
784.39	145.300
784.71	146.750
785.03	146.350
785.35	146.350
785.67	145.600
785.99	144.700
786.31	146.450
786.64	146.850
786.96	145.550
787.28	145.900
787.60	145.500
787.92	145.750
788.24	147.400
788.56	145.750
788.88	146.100
789.20	151.150
789.53	146.850
789.85	145.900
790.17	145.850
790.49	145.400
790.81	145.150
791.13	147.350
791.45	145.850
