OOIBase32 Version 2.0.6.5 Data File
++++++++++++++++++++++++++++++++++++
Date: 03-26-2021, 17:47:49
User: Valued Ocean Optics Customer
Spectrometer Serial Number: USB2E5007
Spectrometer Channel: Master
Integration Time (msec): 45
Spectra Averaged: 20
Boxcar Smoothing: 0
Correct for Electrical Dark: Disabled
Time Normalized: Disabled
Dual-beam Reference: Disabled
Reference Channel: Master
Temperature: Not acquired
Spectrometer Type: S2000
ADC Type: USB2000
Number of Pixels in File: 2048
Graph Title: 
>>>>>Begin Spectral Data<<<<<
340.15	0.000
340.52	155.450
340.90	156.850
341.27	158.150
341.64	158.350
342.01	163.500
342.38	164.000
342.76	163.400
343.13	165.950
343.50	164.900
343.87	163.600
344.24	165.250
344.61	165.200
344.98	165.950
345.36	165.600
345.73	166.450
346.10	164.900
346.47	165.600
346.84	164.200
347.21	164.300
347.58	164.450
347.96	168.150
348.33	164.300
348.70	163.800
349.07	166.250
349.44	166.450
349.81	166.450
350.18	166.750
350.55	167.500
350.92	168.500
351.30	167.150
351.67	167.600
352.04	166.850
352.41	166.500
352.78	169.600
353.15	167.250
353.52	168.900
353.89	167.800
354.26	167.600
354.63	168.300
355.00	168.600
355.37	169.350
355.75	169.200
356.12	168.550
356.49	168.700
356.86	167.450
357.23	167.350
357.60	167.500
357.97	167.650
358.34	169.150
358.71	171.150
359.08	169.600
359.45	166.800
359.82	169.650
360.19	169.350
360.56	168.650
360.93	170.250
361.30	168.850
361.67	168.700
362.04	171.050
362.41	168.700
362.78	168.900
363.15	171.300
363.52	169.200
363.89	168.650
364.26	168.850
364.63	170.350
365.00	170.950
365.37	169.300
365.74	170.400
366.11	170.550
366.48	170.700
366.85	171.000
367.22	169.350
367.59	173.300
367.96	170.300
368.33	170.600
368.70	171.950
369.07	171.200
369.44	171.350
369.81	171.500
370.18	173.050
370.55	170.200
370.92	171.650
371.29	171.900
371.66	172.000
372.03	171.250
372.40	170.150
372.77	171.400
373.13	171.450
373.50	172.000
373.87	170.850
374.24	172.250
374.61	171.750
374.98	171.450
375.35	172.650
375.72	172.100
376.09	172.650
376.46	171.000
376.83	171.000
377.20	171.650
377.56	171.250
377.93	171.900
378.30	172.100
378.67	170.200
379.04	172.150
379.41	172.100
379.78	170.900
380.15	173.300
380.51	173.450
380.88	172.350
381.25	172.000
381.62	173.200
381.99	172.550
382.36	171.000
382.73	172.100
383.09	172.850
383.46	172.450
383.83	172.250
384.20	172.600
384.57	173.500
384.94	173.000
385.31	171.300
385.67	172.100
386.04	171.050
386.41	173.700
386.78	173.200
387.15	175.200
387.51	174.000
387.88	173.250
388.25	172.900
388.62	173.200
388.99	173.500
389.36	172.900
389.72	174.050
390.09	179.250
390.46	173.850
390.83	173.900
391.19	172.250
391.56	172.450
391.93	173.700
392.30	174.400
392.67	174.900
393.03	172.950
393.40	172.950
393.77	174.100
394.14	174.400
394.50	173.800
394.87	173.600
395.24	174.050
395.61	173.550
395.97	174.600
396.34	175.100
396.71	174.500
397.08	176.700
397.44	173.850
397.81	175.350
398.18	174.750
398.55	173.200
398.91	174.300
399.28	175.500
399.65	174.750
400.01	175.800
400.38	173.900
400.75	174.900
401.12	174.400
401.48	174.350
401.85	175.150
402.22	175.650
402.58	174.450
402.95	175.750
403.32	173.800
403.68	174.450
404.05	174.650
404.42	173.650
404.78	175.050
405.15	175.400
405.52	175.700
405.88	176.700
406.25	174.950
406.62	173.350
406.98	174.500
407.35	175.100
407.72	174.500
408.08	175.550
408.45	176.150
408.82	175.100
409.18	175.050
409.55	175.400
409.91	175.000
410.28	175.500
410.65	176.000
411.01	176.150
411.38	173.800
411.75	176.350
412.11	176.250
412.48	175.100
412.84	176.750
413.21	174.350
413.58	175.100
413.94	176.200
414.31	177.350
414.67	177.950
415.04	176.750
415.41	176.850
415.77	176.300
416.14	177.700
416.50	177.150
416.87	177.300
417.23	175.100
417.60	177.200
417.97	175.250
418.33	177.200
418.70	176.950
419.06	177.500
419.43	178.050
419.79	175.550
420.16	176.100
420.52	177.650
420.89	177.550
421.25	177.900
421.62	177.050
421.98	178.000
422.35	175.850
422.72	174.600
423.08	176.750
423.45	177.900
423.81	176.800
424.18	175.950
424.54	177.100
424.91	176.250
425.27	177.000
425.64	177.250
426.00	177.600
426.37	178.350
426.73	176.600
427.09	177.150
427.46	177.850
427.82	179.850
428.19	177.950
428.55	177.200
428.92	178.350
429.28	177.950
429.65	177.100
430.01	180.450
430.38	178.200
430.74	177.850
431.11	179.150
431.47	178.750
431.83	180.250
432.20	176.800
432.56	178.100
432.93	177.450
433.29	180.200
433.66	183.200
434.02	184.700
434.38	182.950
434.75	180.350
435.11	178.100
435.48	179.150
435.84	177.550
436.20	177.700
436.57	175.900
436.93	179.250
437.30	177.350
437.66	178.600
438.02	178.000
438.39	178.300
438.75	178.100
439.12	178.400
439.48	178.000
439.84	180.700
440.21	177.750
440.57	178.350
440.93	177.750
441.30	176.800
441.66	179.200
442.02	178.750
442.39	178.100
442.75	178.950
443.11	179.600
443.48	178.950
443.84	179.350
444.20	177.600
444.57	178.550
444.93	177.000
445.29	181.950
445.66	178.550
446.02	180.050
446.38	177.650
446.75	178.650
447.11	177.600
447.47	178.000
447.84	177.050
448.20	178.850
448.56	178.750
448.92	178.400
449.29	180.250
449.65	178.350
450.01	177.800
450.37	179.700
450.74	178.050
451.10	178.650
451.46	178.850
451.83	178.950
452.19	181.500
452.55	177.950
452.91	177.800
453.28	178.650
453.64	178.450
454.00	180.900
454.36	178.450
454.72	178.800
455.09	178.550
455.45	178.300
455.81	179.800
456.17	178.750
456.54	180.500
456.90	179.450
457.26	179.550
457.62	177.600
457.98	178.000
458.35	178.500
458.71	177.450
459.07	179.600
459.43	180.400
459.79	178.000
460.16	178.350
460.52	178.400
460.88	178.700
461.24	179.450
461.60	177.200
461.96	178.600
462.33	179.100
462.69	180.300
463.05	178.150
463.41	179.650
463.77	179.800
464.13	178.600
464.49	181.350
464.86	178.600
465.22	178.950
465.58	178.500
465.94	177.950
466.30	179.750
466.66	179.600
467.02	179.250
467.38	178.300
467.75	180.200
468.11	180.350
468.47	181.400
468.83	180.050
469.19	181.950
469.55	180.750
469.91	179.950
470.27	180.050
470.63	179.700
470.99	180.100
471.35	181.200
471.72	180.600
472.08	180.400
472.44	180.450
472.80	181.400
473.16	181.150
473.52	181.000
473.88	182.600
474.24	182.600
474.60	180.300
474.96	180.950
475.32	179.900
475.68	180.950
476.04	180.450
476.40	181.300
476.76	183.350
477.12	181.750
477.48	183.500
477.84	182.950
478.20	182.650
478.56	183.350
478.92	182.200
479.28	182.400
479.64	183.600
480.00	184.050
480.36	183.950
480.72	183.200
481.08	182.700
481.44	184.800
481.80	184.400
482.16	183.100
482.52	184.300
482.88	185.500
483.24	184.950
483.60	185.600
483.96	186.300
484.32	187.300
484.68	188.150
485.04	188.300
485.40	186.350
485.76	187.000
486.12	187.800
486.48	187.600
486.83	189.050
487.19	187.450
487.55	188.500
487.91	189.400
488.27	189.950
488.63	189.750
488.99	189.650
489.35	190.200
489.71	189.450
490.07	190.800
490.43	190.250
490.78	190.000
491.14	191.850
491.50	190.850
491.86	190.750
492.22	191.850
492.58	190.250
492.94	191.200
493.30	194.450
493.65	194.300
494.01	193.850
494.37	195.650
494.73	196.000
495.09	194.200
495.45	196.350
495.80	196.250
496.16	197.250
496.52	198.100
496.88	197.450
497.24	197.000
497.60	197.750
497.95	198.700
498.31	199.200
498.67	199.700
499.03	200.650
499.39	202.950
499.74	203.700
500.10	203.550
500.46	205.850
500.82	206.600
501.18	208.350
501.53	208.100
501.89	206.300
502.25	209.400
502.61	209.600
502.96	212.600
503.32	213.350
503.68	217.100
504.04	215.700
504.40	217.700
504.75	219.650
505.11	221.350
505.47	225.200
505.82	229.500
506.18	231.400
506.54	231.200
506.90	233.800
507.25	235.850
507.61	243.450
507.97	249.250
508.33	258.400
508.68	270.600
509.04	276.300
509.40	286.600
509.75	285.150
510.11	292.950
510.47	294.200
510.82	296.100
511.18	295.550
511.54	299.200
511.89	305.850
512.25	303.800
512.61	311.050
512.96	312.350
513.32	312.650
513.68	311.750
514.03	313.150
514.39	321.250
514.75	332.250
515.10	351.600
515.46	366.400
515.82	370.500
516.17	374.300
516.53	369.150
516.89	368.900
517.24	383.800
517.60	391.850
517.95	390.600
518.31	405.000
518.67	422.850
519.02	426.100
519.38	438.100
519.73	443.150
520.09	452.850
520.45	492.300
520.80	516.150
521.16	541.900
521.51	576.300
521.87	610.400
522.22	659.700
522.58	728.850
522.94	815.000
523.29	1039.450
523.65	1452.700
524.00	1838.800
524.36	1966.650
524.71	1899.400
525.07	1833.050
525.42	1834.100
525.78	1836.150
526.14	1890.600
526.49	1968.200
526.85	2141.250
527.20	2225.650
527.56	2391.150
527.91	2688.400
528.27	3039.250
528.62	3722.600
528.98	4064.350
529.33	4064.900
529.69	4065.900
530.04	4065.200
530.40	4064.800
530.75	4064.950
531.11	4063.900
531.46	4056.550
531.81	4057.200
532.17	3982.050
532.52	2383.950
532.88	2081.150
533.23	1862.250
533.59	1842.450
533.94	1749.750
534.30	1597.200
534.65	1478.250
535.01	1343.300
535.36	1276.300
535.71	1163.150
536.07	1000.800
536.42	861.000
536.78	777.000
537.13	704.450
537.48	660.050
537.84	646.750
538.19	597.450
538.55	541.700
538.90	520.650
539.25	494.200
539.61	462.850
539.96	431.200
540.32	389.250
540.67	357.000
541.02	349.500
541.38	338.750
541.73	328.200
542.08	310.200
542.44	298.050
542.79	293.800
543.15	281.300
543.50	280.150
543.85	273.500
544.21	264.800
544.56	255.550
544.91	249.750
545.27	243.900
545.62	238.300
545.97	232.900
546.32	227.400
546.68	225.650
547.03	219.950
547.38	219.800
547.74	215.000
548.09	214.050
548.44	209.900
548.80	205.400
549.15	201.950
549.50	199.550
549.85	198.700
550.21	195.200
550.56	193.350
550.91	192.400
551.26	189.000
551.62	190.400
551.97	188.700
552.32	187.150
552.67	185.850
553.03	186.000
553.38	183.850
553.73	183.750
554.08	182.200
554.44	179.700
554.79	179.100
555.14	178.900
555.49	175.900
555.85	176.700
556.20	174.950
556.55	174.000
556.90	172.750
557.25	173.550
557.61	170.900
557.96	171.450
558.31	170.950
558.66	169.850
559.01	169.350
559.36	170.250
559.72	167.700
560.07	167.700
560.42	168.350
560.77	167.900
561.12	167.100
561.47	167.550
561.83	165.950
562.18	167.050
562.53	166.200
562.88	166.150
563.23	168.600
563.58	166.800
563.93	165.600
564.28	166.750
564.64	165.550
564.99	165.600
565.34	164.500
565.69	167.400
566.04	163.100
566.39	162.700
566.74	163.750
567.09	163.750
567.44	163.550
567.79	162.350
568.14	162.750
568.50	162.200
568.85	161.350
569.20	161.850
569.55	161.900
569.90	162.550
570.25	161.950
570.60	160.450
570.95	161.050
571.30	160.800
571.65	160.000
572.00	158.050
572.35	159.450
572.70	159.350
573.05	158.350
573.40	159.600
573.75	159.750
574.10	159.150
574.45	159.400
574.80	159.250
575.15	159.950
575.50	159.750
575.85	159.100
576.20	158.150
576.55	160.050
576.90	160.000
577.25	160.200
577.60	159.650
577.95	159.600
578.30	160.600
578.65	160.150
579.00	158.750
579.35	158.950
579.70	158.900
580.05	156.800
580.40	158.450
580.74	159.550
581.09	160.600
581.44	159.050
581.79	159.150
582.14	158.000
582.49	158.400
582.84	158.750
583.19	158.750
583.54	159.050
583.89	158.400
584.24	157.450
584.58	158.700
584.93	156.650
585.28	158.550
585.63	158.700
585.98	158.150
586.33	156.900
586.68	158.450
587.03	158.600
587.37	155.700
587.72	155.250
588.07	155.200
588.42	155.900
588.77	155.900
589.12	155.900
589.46	156.400
589.81	155.200
590.16	156.400
590.51	155.900
590.86	155.800
591.21	155.550
591.55	156.300
591.90	154.800
592.25	156.250
592.60	155.800
592.95	155.750
593.29	154.400
593.64	155.850
593.99	155.700
594.34	154.650
594.68	155.500
595.03	155.250
595.38	153.400
595.73	153.750
596.07	152.900
596.42	153.500
596.77	155.450
597.12	155.800
597.46	153.500
597.81	153.950
598.16	154.600
598.51	155.200
598.85	153.550
599.20	154.200
599.55	154.900
599.90	154.250
600.24	154.150
600.59	153.850
600.94	153.100
601.28	153.850
601.63	153.650
601.98	154.900
602.32	154.050
602.67	153.300
603.02	155.550
603.36	154.600
603.71	154.650
604.06	155.100
604.40	154.250
604.75	155.900
605.10	155.150
605.44	157.950
605.79	156.600
606.14	157.400
606.48	157.350
606.83	156.050
607.17	157.900
607.52	159.350
607.87	159.300
608.21	161.600
608.56	164.100
608.90	171.100
609.25	176.200
609.60	177.150
609.94	175.150
610.29	174.900
610.63	170.100
610.98	168.200
611.33	168.400
611.67	166.650
612.02	167.200
612.36	168.150
612.71	168.800
613.05	171.100
613.40	171.350
613.74	172.900
614.09	174.050
614.44	171.800
614.78	171.500
615.13	172.400
615.47	172.850
615.82	172.300
616.16	177.200
616.51	180.700
616.85	186.100
617.20	191.950
617.54	200.200
617.89	204.850
618.23	205.150
618.58	204.950
618.92	204.200
619.27	205.050
619.61	206.200
619.96	210.000
620.30	217.600
620.64	228.250
620.99	243.150
621.33	258.100
621.68	276.450
622.02	287.400
622.37	297.300
622.71	300.100
623.06	297.850
623.40	291.400
623.74	291.150
624.09	297.250
624.43	304.600
624.78	319.850
625.12	344.100
625.46	373.300
625.81	400.900
626.15	427.500
626.50	435.200
626.84	427.650
627.18	414.000
627.53	390.600
627.87	366.250
628.21	344.100
628.56	331.750
628.90	323.450
629.25	322.500
629.59	333.300
629.93	337.850
630.28	339.900
630.62	333.500
630.96	321.650
631.31	301.350
631.65	283.350
631.99	260.650
632.34	240.150
632.68	228.350
633.02	218.850
633.36	214.450
633.71	211.550
634.05	213.550
634.39	213.900
634.74	214.900
635.08	214.700
635.42	210.050
635.76	205.850
636.11	196.050
636.45	193.650
636.79	183.900
637.14	180.500
637.48	177.650
637.82	176.050
638.16	175.450
638.50	176.650
638.85	177.500
639.19	179.000
639.53	178.900
639.87	175.650
640.22	173.550
640.56	171.100
640.90	167.700
641.24	164.750
641.58	162.900
641.93	160.800
642.27	161.550
642.61	162.200
642.95	160.800
643.29	160.900
643.64	160.100
643.98	160.550
644.32	160.450
644.66	157.750
645.00	157.000
645.34	157.500
645.68	154.250
646.03	154.400
646.37	153.100
646.71	153.050
647.05	153.050
647.39	151.750
647.73	154.200
648.07	153.800
648.42	152.900
648.76	153.750
649.10	154.150
649.44	153.050
649.78	149.800
650.12	152.200
650.46	151.950
650.80	150.750
651.14	152.750
651.48	151.000
651.82	149.900
652.16	151.150
652.51	150.100
652.85	148.950
653.19	149.350
653.53	149.350
653.87	149.200
654.21	148.650
654.55	148.850
654.89	149.250
655.23	149.950
655.57	150.800
655.91	148.900
656.25	150.000
656.59	148.650
656.93	148.800
657.27	148.100
657.61	150.950
657.95	149.300
658.29	149.300
658.63	148.450
658.97	150.400
659.31	150.450
659.65	148.850
659.99	147.600
660.33	148.300
660.67	148.450
661.01	149.200
661.35	148.700
661.68	148.900
662.02	147.050
662.36	146.900
662.70	148.300
663.04	147.550
663.38	147.600
663.72	147.700
664.06	147.900
664.40	147.300
664.74	148.350
665.08	149.450
665.42	149.050
665.75	147.600
666.09	147.200
666.43	150.600
666.77	148.050
667.11	147.450
667.45	147.200
667.79	146.950
668.12	146.850
668.46	145.450
668.80	146.800
669.14	147.200
669.48	147.100
669.82	147.750
670.16	147.450
670.49	148.250
670.83	147.150
671.17	146.100
671.51	147.900
671.85	146.650
672.18	146.750
672.52	146.000
672.86	147.000
673.20	145.900
673.54	148.450
673.87	146.450
674.21	148.000
674.55	147.150
674.89	147.800
675.22	146.300
675.56	146.500
675.90	147.150
676.24	147.050
676.57	146.900
676.91	146.600
677.25	146.300
677.59	146.550
677.92	144.850
678.26	146.900
678.60	147.250
678.93	146.400
679.27	147.450
679.61	146.850
679.95	145.850
680.28	146.650
680.62	146.800
680.96	146.500
681.29	145.800
681.63	146.500
681.97	146.600
682.30	147.200
682.64	146.600
682.98	147.150
683.31	146.700
683.65	147.550
683.99	145.700
684.32	146.100
684.66	146.800
685.00	146.500
685.33	146.500
685.67	147.050
686.00	146.500
686.34	146.350
686.68	149.250
687.01	146.900
687.35	145.400
687.68	147.100
688.02	145.950
688.36	146.350
688.69	145.850
689.03	146.100
689.36	146.550
689.70	145.750
690.03	146.600
690.37	146.650
690.71	146.200
691.04	147.350
691.38	145.800
691.71	145.700
692.05	146.500
692.38	146.700
692.72	146.850
693.05	147.900
693.39	146.600
693.72	145.700
694.06	144.250
694.39	145.000
694.73	145.200
695.06	145.800
695.40	145.150
695.73	145.500
696.07	146.050
696.40	145.800
696.74	146.050
697.07	147.350
697.41	146.150
697.74	147.750
698.08	145.700
698.41	146.300
698.74	146.750
699.08	146.350
699.41	145.600
699.75	144.750
700.08	145.900
700.42	145.350
700.75	146.200
701.08	146.450
701.42	145.900
701.75	147.400
702.09	147.400
702.42	148.950
702.75	145.100
703.09	146.750
703.42	146.250
703.75	144.400
704.09	146.550
704.42	147.250
704.76	147.550
705.09	146.900
705.42	145.700
705.76	146.900
706.09	145.500
706.42	148.000
706.76	146.100
707.09	146.350
707.42	145.500
707.76	146.150
708.09	145.750
708.42	146.500
708.75	146.600
709.09	146.500
709.42	145.400
709.75	146.700
710.09	147.050
710.42	146.900
710.75	145.950
711.08	147.150
711.42	146.800
711.75	147.350
712.08	145.750
712.41	145.900
712.75	146.050
713.08	147.350
713.41	146.700
713.74	146.800
714.08	146.800
714.41	145.850
714.74	144.400
715.07	146.500
715.41	145.750
715.74	146.000
716.07	145.000
716.40	146.450
716.73	145.650
717.06	144.500
717.40	146.150
717.73	144.400
718.06	147.400
718.39	146.300
718.72	146.800
719.05	145.600
719.39	146.150
719.72	146.400
720.05	145.550
720.38	145.850
720.71	145.650
721.04	145.600
721.37	144.800
721.71	145.050
722.04	144.200
722.37	145.500
722.70	145.450
723.03	145.700
723.36	144.500
723.69	144.850
724.02	145.200
724.35	146.050
724.68	147.050
725.01	144.800
725.35	146.100
725.68	146.800
726.01	145.250
726.34	147.200
726.67	145.050
727.00	145.150
727.33	145.550
727.66	146.000
727.99	146.350
728.32	145.950
728.65	146.150
728.98	146.500
729.31	145.950
729.64	146.000
729.97	145.400
730.30	145.450
730.63	145.350
730.96	144.950
731.29	144.750
731.62	145.050
731.95	147.450
732.28	146.700
732.61	145.850
732.94	147.500
733.27	145.300
733.60	146.100
733.93	144.900
734.25	145.500
734.58	144.900
734.91	146.750
735.24	143.850
735.57	145.500
735.90	145.650
736.23	146.850
736.56	145.650
736.89	145.600
737.22	145.600
737.55	146.150
737.87	146.150
738.20	144.800
738.53	145.050
738.86	145.950
739.19	145.750
739.52	146.000
739.85	144.500
740.17	144.600
740.50	146.050
740.83	145.800
741.16	145.500
741.49	147.400
741.82	146.050
742.14	145.850
742.47	146.050
742.80	146.300
743.13	144.200
743.46	146.700
743.78	146.950
744.11	144.950
744.44	145.650
744.77	145.600
745.10	146.900
745.42	145.500
745.75	145.550
746.08	145.700
746.41	146.150
746.73	146.150
747.06	146.550
747.39	144.900
747.72	145.450
748.04	145.300
748.37	146.200
748.70	145.900
749.02	147.700
749.35	146.800
749.68	145.450
750.01	146.250
750.33	146.550
750.66	145.050
750.99	145.650
751.31	144.900
751.64	145.350
751.97	145.450
752.29	147.000
752.62	145.050
752.95	144.450
753.27	144.850
753.60	146.250
753.93	145.150
754.25	146.450
754.58	145.050
754.91	144.800
755.23	147.250
755.56	149.250
755.88	146.850
756.21	146.400
756.54	145.800
756.86	145.250
757.19	145.500
757.51	145.150
757.84	146.550
758.17	145.750
758.49	145.000
758.82	144.700
759.14	145.550
759.47	144.900
759.79	144.800
760.12	145.450
760.44	144.650
760.77	145.800
761.09	145.050
761.42	145.700
761.75	146.400
762.07	145.250
762.40	146.300
762.72	144.700
763.05	146.050
763.37	146.150
763.70	144.350
764.02	146.100
764.35	145.100
764.67	144.400
764.99	145.750
765.32	145.800
765.64	146.500
765.97	145.100
766.29	146.200
766.62	144.000
766.94	147.250
767.27	145.600
767.59	145.650
767.91	145.550
768.24	146.250
768.56	146.050
768.89	146.900
769.21	147.400
769.54	148.250
769.86	149.300
770.18	148.200
770.51	146.450
770.83	146.300
771.15	146.000
771.48	145.550
771.80	145.150
772.13	146.150
772.45	146.400
772.77	147.050
773.10	145.800
773.42	146.000
773.74	143.600
774.07	146.350
774.39	145.450
774.71	144.700
775.04	145.800
775.36	144.500
775.68	145.400
776.01	146.100
776.33	145.300
776.65	146.250
776.97	145.700
777.30	146.200
777.62	144.400
777.94	143.800
778.26	144.550
778.59	144.150
778.91	145.350
779.23	145.850
779.55	144.800
779.88	145.600
780.20	146.600
780.52	145.550
780.84	144.550
781.17	145.100
781.49	144.550
781.81	144.350
782.13	145.800
782.45	146.950
782.78	146.300
783.10	145.200
783.42	145.450
783.74	145.250
784.06	145.100
784.39	144.700
784.71	145.750
785.03	145.750
785.35	145.800
785.67	145.250
785.99	144.850
786.31	145.050
786.64	146.100
786.96	145.400
787.28	145.600
787.60	144.900
787.92	144.950
788.24	144.750
788.56	145.300
788.88	145.000
789.20	149.300
789.53	146.750
789.85	146.700
790.17	145.100
790.49	144.750
790.81	145.250
791.13	145.450
791.45	146.200
