OOIBase32 Version 2.0.6.5 Data File
++++++++++++++++++++++++++++++++++++
Date: 03-26-2021, 17:25:23
User: Valued Ocean Optics Customer
Spectrometer Serial Number: USB2E5007
Spectrometer Channel: Master
Integration Time (msec): 45
Spectra Averaged: 20
Boxcar Smoothing: 0
Correct for Electrical Dark: Disabled
Time Normalized: Disabled
Dual-beam Reference: Disabled
Reference Channel: Master
Temperature: Not acquired
Spectrometer Type: S2000
ADC Type: USB2000
Number of Pixels in File: 2048
Graph Title: 
>>>>>Begin Spectral Data<<<<<
340.15	0.000
340.52	175.150
340.90	177.900
341.27	177.850
341.64	178.150
342.01	183.300
342.38	183.000
342.76	184.000
343.13	185.100
343.50	185.200
343.87	184.150
344.24	185.700
344.61	185.850
344.98	184.450
345.36	185.050
345.73	185.700
346.10	184.950
346.47	184.700
346.84	183.350
347.21	184.400
347.58	184.500
347.96	188.100
348.33	184.650
348.70	184.750
349.07	186.200
349.44	186.250
349.81	188.950
350.18	187.250
350.55	187.900
350.92	188.300
351.30	187.000
351.67	188.750
352.04	188.000
352.41	187.350
352.78	189.450
353.15	187.900
353.52	188.400
353.89	188.850
354.26	188.000
354.63	187.900
355.00	189.700
355.37	189.000
355.75	189.250
356.12	188.550
356.49	189.300
356.86	189.550
357.23	188.200
357.60	188.850
357.97	188.600
358.34	189.200
358.71	190.150
359.08	190.400
359.45	188.250
359.82	190.500
360.19	189.300
360.56	190.000
360.93	189.950
361.30	190.150
361.67	189.900
362.04	189.850
362.41	190.550
362.78	189.150
363.15	190.900
363.52	189.650
363.89	190.150
364.26	188.750
364.63	189.900
365.00	190.250
365.37	190.150
365.74	190.750
366.11	189.800
366.48	190.750
366.85	189.800
367.22	190.250
367.59	192.550
367.96	190.700
368.33	190.850
368.70	189.450
369.07	191.050
369.44	192.050
369.81	192.000
370.18	191.250
370.55	190.450
370.92	192.600
371.29	190.450
371.66	193.050
372.03	191.250
372.40	191.750
372.77	191.350
373.13	190.750
373.50	192.600
373.87	191.550
374.24	192.250
374.61	191.200
374.98	192.150
375.35	191.600
375.72	191.650
376.09	190.750
376.46	193.050
376.83	192.200
377.20	191.100
377.56	192.050
377.93	192.050
378.30	193.250
378.67	191.750
379.04	191.100
379.41	192.850
379.78	193.350
380.15	193.100
380.51	192.600
380.88	193.150
381.25	192.300
381.62	192.250
381.99	192.050
382.36	192.550
382.73	191.450
383.09	193.400
383.46	193.150
383.83	192.450
384.20	193.350
384.57	193.850
384.94	193.400
385.31	192.500
385.67	193.650
386.04	194.200
386.41	193.150
386.78	195.050
387.15	195.150
387.51	194.700
387.88	193.750
388.25	194.000
388.62	194.050
388.99	194.350
389.36	194.050
389.72	194.300
390.09	199.400
390.46	194.100
390.83	194.350
391.19	193.400
391.56	194.800
391.93	194.550
392.30	195.800
392.67	193.750
393.03	194.850
393.40	196.300
393.77	195.400
394.14	194.100
394.50	193.450
394.87	195.350
395.24	194.900
395.61	195.950
395.97	195.050
396.34	194.700
396.71	193.350
397.08	195.850
397.44	195.150
397.81	195.400
398.18	196.450
398.55	195.850
398.91	194.450
399.28	195.700
399.65	196.000
400.01	195.800
400.38	195.350
400.75	194.750
401.12	194.750
401.48	195.050
401.85	195.600
402.22	192.800
402.58	195.250
402.95	196.100
403.32	194.750
403.68	194.150
404.05	195.000
404.42	195.850
404.78	195.650
405.15	197.450
405.52	196.750
405.88	197.100
406.25	194.900
406.62	196.150
406.98	195.400
407.35	194.150
407.72	196.200
408.08	196.550
408.45	196.400
408.82	197.400
409.18	195.700
409.55	196.200
409.91	195.300
410.28	195.500
410.65	196.850
411.01	197.100
411.38	195.750
411.75	195.950
412.11	197.000
412.48	197.550
412.84	197.000
413.21	196.300
413.58	197.450
413.94	197.600
414.31	197.150
414.67	197.650
415.04	196.350
415.41	197.500
415.77	197.900
416.14	197.250
416.50	196.650
416.87	197.050
417.23	196.500
417.60	198.300
417.97	198.400
418.33	197.150
418.70	197.300
419.06	199.750
419.43	197.550
419.79	195.850
420.16	196.950
420.52	199.000
420.89	196.950
421.25	198.250
421.62	198.050
421.98	196.000
422.35	198.150
422.72	198.400
423.08	199.450
423.45	198.700
423.81	197.050
424.18	199.550
424.54	196.150
424.91	196.950
425.27	197.700
425.64	197.350
426.00	196.200
426.37	199.350
426.73	199.000
427.09	198.400
427.46	198.150
427.82	199.350
428.19	198.600
428.55	199.400
428.92	198.350
429.28	197.650
429.65	197.850
430.01	200.050
430.38	197.800
430.74	196.850
431.11	198.800
431.47	198.250
431.83	199.800
432.20	197.350
432.56	199.200
432.93	197.650
433.29	197.900
433.66	197.800
434.02	199.550
434.38	198.550
434.75	198.150
435.11	198.150
435.48	198.750
435.84	198.000
436.20	197.950
436.57	197.050
436.93	199.650
437.30	199.600
437.66	197.950
438.02	199.650
438.39	198.600
438.75	198.950
439.12	199.450
439.48	197.750
439.84	199.900
440.21	198.500
440.57	198.050
440.93	197.850
441.30	198.150
441.66	198.350
442.02	200.700
442.39	199.000
442.75	200.500
443.11	197.700
443.48	199.200
443.84	199.350
444.20	199.850
444.57	198.900
444.93	198.150
445.29	201.000
445.66	199.400
446.02	201.400
446.38	199.150
446.75	200.500
447.11	196.500
447.47	200.200
447.84	197.500
448.20	201.100
448.56	198.900
448.92	199.000
449.29	200.750
449.65	199.500
450.01	198.350
450.37	199.100
450.74	200.300
451.10	198.700
451.46	199.600
451.83	199.300
452.19	200.200
452.55	197.050
452.91	198.600
453.28	198.500
453.64	198.850
454.00	200.750
454.36	197.600
454.72	199.250
455.09	199.100
455.45	198.450
455.81	199.200
456.17	199.700
456.54	200.650
456.90	198.100
457.26	200.950
457.62	199.200
457.98	197.950
458.35	199.350
458.71	198.300
459.07	199.250
459.43	200.100
459.79	199.250
460.16	198.650
460.52	198.750
460.88	197.500
461.24	199.050
461.60	198.650
461.96	199.600
462.33	200.300
462.69	199.350
463.05	198.700
463.41	198.500
463.77	199.450
464.13	198.500
464.49	200.650
464.86	198.400
465.22	199.700
465.58	198.650
465.94	198.500
466.30	199.150
466.66	198.750
467.02	199.900
467.38	200.300
467.75	199.550
468.11	201.200
468.47	201.350
468.83	200.350
469.19	199.750
469.55	201.950
469.91	200.150
470.27	200.450
470.63	199.100
470.99	200.700
471.35	202.150
471.72	202.400
472.08	200.250
472.44	202.200
472.80	201.700
473.16	201.500
473.52	203.500
473.88	201.900
474.24	201.150
474.60	202.050
474.96	202.650
475.32	201.050
475.68	201.850
476.04	202.250
476.40	201.700
476.76	201.750
477.12	203.650
477.48	203.550
477.84	203.350
478.20	203.300
478.56	202.650
478.92	203.600
479.28	204.100
479.64	203.650
480.00	204.350
480.36	203.750
480.72	203.050
481.08	203.900
481.44	204.950
481.80	204.300
482.16	205.000
482.52	204.100
482.88	204.250
483.24	204.350
483.60	206.700
483.96	206.450
484.32	205.050
484.68	205.250
485.04	204.950
485.40	206.100
485.76	207.450
486.12	207.200
486.48	206.400
486.83	207.550
487.19	206.150
487.55	207.850
487.91	208.450
488.27	207.950
488.63	211.000
488.99	208.600
489.35	211.400
489.71	210.600
490.07	210.200
490.43	209.400
490.78	211.300
491.14	212.600
491.50	211.350
491.86	212.500
492.22	211.000
492.58	212.350
492.94	211.150
493.30	213.600
493.65	213.050
494.01	214.800
494.37	217.050
494.73	214.900
495.09	216.300
495.45	217.950
495.80	217.900
496.16	218.200
496.52	218.300
496.88	218.450
497.24	220.950
497.60	221.400
497.95	220.850
498.31	221.700
498.67	220.500
499.03	223.000
499.39	223.300
499.74	224.000
500.10	226.100
500.46	227.400
500.82	228.850
501.18	230.300
501.53	230.200
501.89	232.150
502.25	233.650
502.61	233.400
502.96	237.050
503.32	233.150
503.68	239.050
504.04	240.950
504.40	241.050
504.75	244.950
505.11	248.650
505.47	248.000
505.82	252.000
506.18	253.200
506.54	254.500
506.90	261.150
507.25	266.250
507.61	270.050
507.97	276.750
508.33	289.700
508.68	302.450
509.04	307.100
509.40	319.700
509.75	322.800
510.11	324.850
510.47	326.050
510.82	330.250
511.18	334.050
511.54	337.950
511.89	341.550
512.25	350.350
512.61	349.250
512.96	347.900
513.32	350.900
513.68	348.800
514.03	351.250
514.39	358.850
514.75	371.350
515.10	385.650
515.46	395.650
515.82	405.450
516.17	410.950
516.53	411.550
516.89	411.200
517.24	420.400
517.60	435.850
517.95	438.600
518.31	456.500
518.67	461.050
519.02	457.300
519.38	482.050
519.73	482.050
520.09	510.600
520.45	544.550
520.80	573.800
521.16	612.700
521.51	641.650
521.87	673.500
522.22	689.150
522.58	767.200
522.94	847.750
523.29	1085.000
523.65	1609.450
524.00	1985.600
524.36	2279.750
524.71	2197.800
525.07	1925.600
525.42	1925.000
525.78	1985.650
526.14	1980.000
526.49	2110.050
526.85	2230.350
527.20	2452.700
527.56	2538.300
527.91	2803.000
528.27	3103.850
528.62	4019.000
528.98	4095.000
529.33	4095.000
529.69	4095.000
530.04	4095.000
530.40	4095.000
530.75	4095.000
531.11	4095.000
531.46	4094.950
531.81	4095.000
532.17	4054.350
532.52	2670.200
532.88	2315.850
533.23	2028.150
533.59	1947.400
533.94	1807.650
534.30	1724.350
534.65	1571.600
535.01	1426.350
535.36	1271.300
535.71	1218.700
536.07	1026.050
536.42	912.950
536.78	810.950
537.13	718.950
537.48	716.550
537.84	679.600
538.19	627.350
538.55	601.000
538.90	592.250
539.25	540.400
539.61	514.300
539.96	449.450
540.32	413.400
540.67	390.500
541.02	364.450
541.38	360.450
541.73	352.200
542.08	342.650
542.44	326.200
542.79	315.300
543.15	306.300
543.50	299.450
543.85	286.150
544.21	280.900
544.56	272.950
544.91	268.600
545.27	264.350
545.62	256.650
545.97	250.050
546.32	247.250
546.68	242.100
547.03	240.150
547.38	240.800
547.74	236.000
548.09	234.200
548.44	229.500
548.80	228.450
549.15	222.300
549.50	220.550
549.85	222.200
550.21	216.200
550.56	216.950
550.91	214.750
551.26	212.400
551.62	211.800
551.97	211.050
552.32	207.850
552.67	205.450
553.03	207.200
553.38	205.750
553.73	203.750
554.08	203.100
554.44	200.850
554.79	200.650
555.14	199.300
555.49	199.200
555.85	196.750
556.20	195.750
556.55	194.250
556.90	194.200
557.25	193.750
557.61	192.250
557.96	193.400
558.31	189.750
558.66	189.300
559.01	190.250
559.36	188.850
559.72	187.800
560.07	188.100
560.42	187.250
560.77	187.200
561.12	186.250
561.47	186.400
561.83	186.250
562.18	186.100
562.53	187.000
562.88	186.500
563.23	187.850
563.58	186.650
563.93	186.250
564.28	186.400
564.64	184.900
564.99	184.800
565.34	184.950
565.69	185.950
566.04	184.000
566.39	183.450
566.74	183.300
567.09	182.700
567.44	183.500
567.79	183.550
568.14	183.000
568.50	181.950
568.85	181.050
569.20	179.050
569.55	180.350
569.90	180.250
570.25	180.350
570.60	180.750
570.95	179.050
571.30	179.400
571.65	179.000
572.00	179.250
572.35	180.550
572.70	179.600
573.05	177.850
573.40	178.250
573.75	179.250
574.10	177.900
574.45	177.300
574.80	177.300
575.15	177.500
575.50	177.950
575.85	178.500
576.20	176.550
576.55	176.600
576.90	178.400
577.25	177.250
577.60	177.500
577.95	176.400
578.30	178.450
578.65	176.500
579.00	176.650
579.35	177.800
579.70	175.400
580.05	175.100
580.40	176.050
580.74	178.350
581.09	176.100
581.44	174.500
581.79	175.700
582.14	175.550
582.49	176.800
582.84	174.800
583.19	173.950
583.54	176.150
583.89	174.600
584.24	174.600
584.58	175.700
584.93	174.950
585.28	176.250
585.63	174.100
585.98	174.850
586.33	174.150
586.68	174.050
587.03	175.500
587.37	174.700
587.72	173.000
588.07	173.250
588.42	174.550
588.77	174.350
589.12	174.500
589.46	174.450
589.81	174.650
590.16	174.150
590.51	172.100
590.86	172.800
591.21	172.350
591.55	174.650
591.90	173.650
592.25	173.300
592.60	171.800
592.95	173.950
593.29	172.150
593.64	173.000
593.99	172.050
594.34	172.250
594.68	173.100
595.03	172.600
595.38	173.650
595.73	172.150
596.07	170.450
596.42	171.800
596.77	172.800
597.12	171.400
597.46	170.850
597.81	170.400
598.16	171.250
598.51	171.550
598.85	171.800
599.20	171.050
599.55	171.400
599.90	170.550
600.24	170.500
600.59	171.100
600.94	170.500
601.28	171.700
601.63	170.650
601.98	170.750
602.32	170.500
602.67	172.000
603.02	171.700
603.36	170.600
603.71	171.350
604.06	172.300
604.40	171.700
604.75	171.600
605.10	170.800
605.44	170.700
605.79	170.650
606.14	170.600
606.48	169.950
606.83	170.100
607.17	170.450
607.52	171.450
607.87	170.250
608.21	171.450
608.56	169.800
608.90	171.250
609.25	169.550
609.60	170.600
609.94	170.650
610.29	171.800
610.63	171.050
610.98	172.400
611.33	171.050
611.67	171.900
612.02	170.850
612.36	170.350
612.71	170.800
613.05	171.600
613.40	170.650
613.74	171.050
614.09	171.600
614.44	171.400
614.78	170.850
615.13	172.650
615.47	171.500
615.82	173.100
616.16	173.650
616.51	177.100
616.85	177.000
617.20	178.500
617.54	182.600
617.89	185.950
618.23	192.450
618.58	202.200
618.92	216.900
619.27	235.300
619.61	256.650
619.96	279.500
620.30	299.450
620.64	307.850
620.99	311.650
621.33	308.100
621.68	303.750
622.02	303.650
622.37	310.200
622.71	327.250
623.06	351.800
623.40	378.750
623.74	403.350
624.09	420.250
624.43	419.050
624.78	407.800
625.12	384.650
625.46	357.350
625.81	330.150
626.15	315.900
626.50	302.950
626.84	299.200
627.18	306.450
627.53	316.000
627.87	329.700
628.21	342.050
628.56	347.300
628.90	341.500
629.25	330.650
629.59	318.250
629.93	304.700
630.28	292.350
630.62	284.100
630.96	282.250
631.31	287.100
631.65	297.350
631.99	309.850
632.34	330.250
632.68	348.050
633.02	356.550
633.36	358.900
633.71	349.300
634.05	334.450
634.39	318.200
634.74	301.400
635.08	293.350
635.42	288.500
635.76	292.650
636.11	298.500
636.45	312.900
636.79	325.250
637.14	337.900
637.48	340.300
637.82	335.300
638.16	323.900
638.50	308.350
638.85	293.650
639.19	282.150
639.53	269.300
639.87	259.600
640.22	257.700
640.56	257.500
640.90	260.800
641.24	263.950
641.58	266.450
641.93	263.800
642.27	261.300
642.61	251.400
642.95	242.250
643.29	232.850
643.64	224.150
643.98	218.200
644.32	211.800
644.66	209.450
645.00	208.500
645.34	208.300
645.68	207.600
646.03	206.900
646.37	203.800
646.71	200.750
647.05	197.550
647.39	192.700
647.73	190.650
648.07	187.450
648.42	183.650
648.76	183.750
649.10	182.650
649.44	184.150
649.78	181.700
650.12	181.800
650.46	181.700
650.80	179.800
651.14	181.000
651.48	176.950
651.82	175.700
652.16	176.700
652.51	174.300
652.85	174.700
653.19	174.000
653.53	174.800
653.87	174.300
654.21	175.700
654.55	173.800
654.89	174.700
655.23	173.250
655.57	173.450
655.91	172.200
656.25	171.950
656.59	170.900
656.93	171.650
657.27	170.800
657.61	171.650
657.95	172.300
658.29	170.750
658.63	171.600
658.97	171.700
659.31	172.100
659.65	170.400
659.99	170.500
660.33	170.950
660.67	169.300
661.01	168.900
661.35	168.400
661.68	169.150
662.02	168.050
662.36	168.650
662.70	169.250
663.04	168.300
663.38	168.350
663.72	167.750
664.06	168.750
664.40	168.150
664.74	167.300
665.08	166.600
665.42	166.800
665.75	166.150
666.09	166.200
666.43	168.200
666.77	165.750
667.11	166.350
667.45	167.200
667.79	166.100
668.12	165.350
668.46	165.750
668.80	164.700
669.14	165.650
669.48	167.050
669.82	166.650
670.16	166.150
670.49	165.050
670.83	166.900
671.17	166.400
671.51	165.150
671.85	165.450
672.18	165.100
672.52	165.050
672.86	165.350
673.20	165.750
673.54	166.650
673.87	165.750
674.21	165.600
674.55	165.700
674.89	165.350
675.22	165.550
675.56	166.100
675.90	165.900
676.24	166.250
676.57	165.100
676.91	166.150
677.25	164.900
677.59	164.550
677.92	164.450
678.26	163.250
678.60	163.800
678.93	165.350
679.27	166.550
679.61	165.900
679.95	165.200
680.28	165.000
680.62	165.200
680.96	164.950
681.29	165.100
681.63	163.550
681.97	165.450
682.30	165.350
682.64	164.900
682.98	165.700
683.31	165.900
683.65	165.150
683.99	163.400
684.32	165.050
684.66	165.050
685.00	163.700
685.33	165.400
685.67	164.050
686.00	163.800
686.34	164.050
686.68	166.000
687.01	163.300
687.35	165.000
687.68	164.350
688.02	164.100
688.36	165.300
688.69	164.100
689.03	164.700
689.36	164.700
689.70	164.050
690.03	164.800
690.37	163.850
690.71	164.950
691.04	164.000
691.38	164.650
691.71	165.500
692.05	164.000
692.38	163.500
692.72	165.650
693.05	164.750
693.39	164.650
693.72	165.000
694.06	164.650
694.39	163.950
694.73	164.700
695.06	163.650
695.40	163.400
695.73	164.250
696.07	164.800
696.40	164.300
696.74	164.450
697.07	164.200
697.41	163.350
697.74	165.250
698.08	163.100
698.41	165.000
698.74	164.350
699.08	163.350
699.41	164.150
699.75	164.400
700.08	164.250
700.42	164.150
700.75	163.850
701.08	164.750
701.42	162.850
701.75	163.750
702.09	165.400
702.42	165.750
702.75	163.700
703.09	164.300
703.42	164.550
703.75	163.750
704.09	163.800
704.42	164.300
704.76	162.850
705.09	164.100
705.42	163.950
705.76	165.700
706.09	163.900
706.42	164.800
706.76	163.900
707.09	163.800
707.42	163.100
707.76	164.150
708.09	163.950
708.42	163.750
708.75	165.350
709.09	163.800
709.42	163.050
709.75	164.000
710.09	165.450
710.42	162.950
710.75	163.500
711.08	163.650
711.42	164.000
711.75	164.950
712.08	164.600
712.41	164.350
712.75	164.500
713.08	164.150
713.41	164.900
713.74	164.450
714.08	164.950
714.41	166.100
714.74	165.000
715.07	164.450
715.41	163.300
715.74	164.600
716.07	164.200
716.40	164.600
716.73	164.250
717.06	164.150
717.40	164.100
717.73	163.750
718.06	164.150
718.39	164.750
718.72	164.550
719.05	164.000
719.39	163.100
719.72	164.850
720.05	164.250
720.38	164.200
720.71	164.250
721.04	164.100
721.37	164.650
721.71	163.550
722.04	163.000
722.37	163.900
722.70	164.850
723.03	165.000
723.36	162.650
723.69	163.900
724.02	162.800
724.35	164.300
724.68	164.750
725.01	164.500
725.35	164.500
725.68	164.350
726.01	163.700
726.34	163.850
726.67	162.750
727.00	163.600
727.33	163.200
727.66	163.300
727.99	163.150
728.32	163.150
728.65	163.900
728.98	164.600
729.31	165.500
729.64	164.200
729.97	162.400
730.30	164.050
730.63	163.850
730.96	164.250
731.29	163.550
731.62	164.600
731.95	163.850
732.28	165.300
732.61	164.100
732.94	164.750
733.27	164.650
733.60	164.050
733.93	163.150
734.25	163.550
734.58	162.600
734.91	162.800
735.24	164.100
735.57	164.600
735.90	163.550
736.23	164.650
736.56	163.300
736.89	163.400
737.22	164.100
737.55	163.500
737.87	164.250
738.20	163.750
738.53	164.500
738.86	162.800
739.19	164.450
739.52	164.100
739.85	164.250
740.17	164.150
740.50	162.450
740.83	163.700
741.16	163.400
741.49	164.500
741.82	165.650
742.14	163.650
742.47	163.900
742.80	163.450
743.13	164.800
743.46	164.350
743.78	165.200
744.11	163.200
744.44	163.750
744.77	164.350
745.10	164.400
745.42	163.700
745.75	162.950
746.08	165.200
746.41	165.650
746.73	163.800
747.06	165.850
747.39	163.950
747.72	164.000
748.04	164.000
748.37	164.600
748.70	163.050
749.02	164.550
749.35	164.950
749.68	163.550
750.01	164.100
750.33	164.350
750.66	163.300
750.99	163.950
751.31	162.800
751.64	161.600
751.97	163.100
752.29	165.850
752.62	163.800
752.95	163.250
753.27	165.100
753.60	163.250
753.93	163.650
754.25	163.500
754.58	163.400
754.91	163.050
755.23	166.500
755.56	166.300
755.88	164.050
756.21	163.400
756.54	163.750
756.86	163.350
757.19	164.350
757.51	164.650
757.84	164.500
758.17	164.400
758.49	165.150
758.82	164.200
759.14	164.950
759.47	163.700
759.79	164.700
760.12	163.950
760.44	164.100
760.77	164.000
761.09	162.900
761.42	164.100
761.75	163.450
762.07	163.400
762.40	164.900
762.72	162.850
763.05	164.800
763.37	163.800
763.70	163.200
764.02	164.950
764.35	162.800
764.67	164.900
764.99	163.200
765.32	163.300
765.64	165.000
765.97	163.150
766.29	163.750
766.62	162.850
766.94	164.050
767.27	164.350
767.59	163.100
767.91	163.950
768.24	164.100
768.56	164.000
768.89	163.800
769.21	164.750
769.54	166.500
769.86	167.400
770.18	166.000
770.51	163.400
770.83	163.150
771.15	164.400
771.48	163.100
771.80	164.150
772.13	163.750
772.45	164.150
772.77	163.500
773.10	163.350
773.42	164.350
773.74	163.300
774.07	163.350
774.39	163.550
774.71	163.700
775.04	164.600
775.36	161.900
775.68	162.800
776.01	163.200
776.33	162.850
776.65	163.450
776.97	162.950
777.30	164.700
777.62	164.050
777.94	163.250
778.26	164.300
778.59	163.150
778.91	162.400
779.23	162.950
779.55	164.300
779.88	164.750
780.20	163.850
780.52	163.050
780.84	164.100
781.17	164.100
781.49	164.400
781.81	163.450
782.13	163.450
782.45	164.650
782.78	163.050
783.10	163.850
783.42	164.050
783.74	163.350
784.06	162.400
784.39	164.450
784.71	162.900
785.03	164.000
785.35	164.150
785.67	163.400
785.99	162.850
786.31	164.350
786.64	163.050
786.96	163.900
787.28	164.850
787.60	162.300
787.92	163.800
788.24	164.550
788.56	162.450
788.88	163.600
789.20	164.400
789.53	164.750
789.85	163.900
790.17	164.550
790.49	163.100
790.81	163.100
791.13	163.500
791.45	164.050
