OOIBase32 Version 2.0.6.5 Data File
++++++++++++++++++++++++++++++++++++
Date: 03-26-2021, 17:51:24
User: Valued Ocean Optics Customer
Spectrometer Serial Number: USB2E5007
Spectrometer Channel: Master
Integration Time (msec): 45
Spectra Averaged: 20
Boxcar Smoothing: 0
Correct for Electrical Dark: Disabled
Time Normalized: Disabled
Dual-beam Reference: Disabled
Reference Channel: Master
Temperature: Not acquired
Spectrometer Type: S2000
ADC Type: USB2000
Number of Pixels in File: 2048
Graph Title: 
>>>>>Begin Spectral Data<<<<<
340.15	0.000
340.52	158.300
340.90	160.850
341.27	162.300
341.64	164.550
342.01	167.600
342.38	167.600
342.76	167.600
343.13	168.900
343.50	170.650
343.87	170.050
344.24	170.150
344.61	170.200
344.98	170.950
345.36	170.300
345.73	170.250
346.10	168.200
346.47	171.800
346.84	167.950
347.21	169.050
347.58	169.650
347.96	173.150
348.33	168.650
348.70	169.800
349.07	169.250
349.44	171.650
349.81	173.400
350.18	171.750
350.55	172.700
350.92	172.750
351.30	172.200
351.67	172.750
352.04	172.800
352.41	171.450
352.78	173.600
353.15	174.050
353.52	173.050
353.89	175.300
354.26	171.900
354.63	172.400
355.00	173.300
355.37	173.600
355.75	172.400
356.12	171.900
356.49	172.800
356.86	173.250
357.23	172.850
357.60	173.700
357.97	173.150
358.34	173.050
358.71	175.300
359.08	173.700
359.45	173.100
359.82	175.600
360.19	174.700
360.56	172.900
360.93	174.150
361.30	174.300
361.67	173.350
362.04	174.350
362.41	174.200
362.78	172.500
363.15	176.250
363.52	176.000
363.89	175.250
364.26	175.400
364.63	174.650
365.00	175.400
365.37	174.550
365.74	174.950
366.11	176.500
366.48	177.100
366.85	175.600
367.22	174.500
367.59	176.850
367.96	175.800
368.33	174.150
368.70	175.000
369.07	176.150
369.44	176.350
369.81	175.650
370.18	176.300
370.55	174.150
370.92	174.950
371.29	177.100
371.66	176.150
372.03	176.000
372.40	175.800
372.77	175.950
373.13	175.550
373.50	176.250
373.87	176.150
374.24	177.650
374.61	177.000
374.98	177.400
375.35	177.500
375.72	177.600
376.09	176.400
376.46	175.700
376.83	176.350
377.20	177.100
377.56	176.900
377.93	176.500
378.30	178.100
378.67	175.250
379.04	177.450
379.41	176.550
379.78	178.400
380.15	179.800
380.51	177.800
380.88	178.550
381.25	178.400
381.62	179.050
381.99	176.450
382.36	176.850
382.73	177.800
383.09	178.550
383.46	178.050
383.83	178.000
384.20	179.150
384.57	179.050
384.94	178.050
385.31	177.650
385.67	178.800
386.04	178.100
386.41	179.300
386.78	177.900
387.15	181.350
387.51	179.100
387.88	179.200
388.25	178.450
388.62	179.000
388.99	177.950
389.36	178.200
389.72	179.300
390.09	183.900
390.46	179.350
390.83	178.650
391.19	180.350
391.56	177.400
391.93	179.350
392.30	179.650
392.67	181.350
393.03	178.650
393.40	180.950
393.77	179.350
394.14	179.950
394.50	179.750
394.87	180.550
395.24	180.350
395.61	179.650
395.97	180.050
396.34	179.300
396.71	179.200
397.08	180.400
397.44	180.100
397.81	180.450
398.18	180.900
398.55	179.700
398.91	179.650
399.28	181.350
399.65	181.750
400.01	181.450
400.38	180.250
400.75	180.950
401.12	180.600
401.48	179.150
401.85	181.450
402.22	180.800
402.58	182.400
402.95	183.500
403.32	181.300
403.68	182.200
404.05	180.900
404.42	180.950
404.78	181.950
405.15	182.550
405.52	182.400
405.88	181.350
406.25	180.350
406.62	180.850
406.98	180.950
407.35	180.450
407.72	182.100
408.08	180.900
408.45	181.850
408.82	183.400
409.18	182.450
409.55	183.100
409.91	182.000
410.28	181.300
410.65	182.250
411.01	181.900
411.38	181.550
411.75	181.800
412.11	180.450
412.48	183.750
412.84	182.100
413.21	181.650
413.58	182.200
413.94	183.900
414.31	181.600
414.67	183.250
415.04	183.300
415.41	182.800
415.77	182.600
416.14	184.000
416.50	183.250
416.87	182.750
417.23	181.500
417.60	184.200
417.97	183.250
418.33	183.700
418.70	183.400
419.06	185.850
419.43	183.550
419.79	181.750
420.16	183.650
420.52	183.400
420.89	183.500
421.25	183.350
421.62	183.450
421.98	182.900
422.35	182.850
422.72	183.550
423.08	183.250
423.45	182.050
423.81	182.800
424.18	184.050
424.54	183.300
424.91	182.800
425.27	182.400
425.64	182.350
426.00	185.050
426.37	184.250
426.73	183.650
427.09	185.050
427.46	184.000
427.82	186.000
428.19	183.300
428.55	185.900
428.92	184.200
429.28	184.350
429.65	184.650
430.01	186.950
430.38	184.200
430.74	182.650
431.11	185.500
431.47	186.100
431.83	187.300
432.20	185.400
432.56	186.250
432.93	185.250
433.29	185.000
433.66	189.900
434.02	193.600
434.38	190.500
434.75	187.950
435.11	185.600
435.48	185.700
435.84	184.800
436.20	185.150
436.57	185.750
436.93	185.850
437.30	185.600
437.66	185.600
438.02	184.950
438.39	184.400
438.75	184.950
439.12	186.700
439.48	185.900
439.84	186.300
440.21	183.800
440.57	184.650
440.93	186.350
441.30	184.750
441.66	185.500
442.02	184.700
442.39	185.850
442.75	183.900
443.11	186.350
443.48	185.150
443.84	186.200
444.20	184.300
444.57	185.450
444.93	185.750
445.29	185.950
445.66	185.800
446.02	185.750
446.38	185.650
446.75	186.350
447.11	185.900
447.47	186.050
447.84	184.800
448.20	185.750
448.56	186.250
448.92	185.300
449.29	188.550
449.65	186.300
450.01	186.150
450.37	186.700
450.74	183.650
451.10	186.400
451.46	185.700
451.83	186.950
452.19	188.550
452.55	184.850
452.91	185.850
453.28	185.800
453.64	185.350
454.00	188.800
454.36	185.000
454.72	185.950
455.09	185.950
455.45	185.800
455.81	186.050
456.17	186.250
456.54	186.750
456.90	184.700
457.26	186.850
457.62	186.450
457.98	185.900
458.35	186.200
458.71	185.800
459.07	186.200
459.43	187.550
459.79	185.850
460.16	184.550
460.52	184.950
460.88	186.700
461.24	185.550
461.60	185.250
461.96	185.950
462.33	185.300
462.69	187.350
463.05	184.800
463.41	184.550
463.77	187.000
464.13	186.650
464.49	188.400
464.86	186.900
465.22	187.950
465.58	187.950
465.94	185.850
466.30	188.450
466.66	188.550
467.02	187.400
467.38	186.700
467.75	186.600
468.11	188.250
468.47	187.000
468.83	188.250
469.19	187.450
469.55	187.450
469.91	187.000
470.27	188.650
470.63	186.600
470.99	188.100
471.35	189.200
471.72	187.050
472.08	188.750
472.44	189.000
472.80	189.450
473.16	189.850
473.52	189.450
473.88	190.100
474.24	190.700
474.60	189.650
474.96	189.400
475.32	190.950
475.68	188.750
476.04	189.450
476.40	189.550
476.76	189.800
477.12	191.300
477.48	191.350
477.84	191.100
478.20	190.200
478.56	191.300
478.92	190.150
479.28	190.550
479.64	192.700
480.00	191.000
480.36	193.800
480.72	191.000
481.08	194.200
481.44	195.850
481.80	192.650
482.16	193.450
482.52	193.350
482.88	194.150
483.24	195.500
483.60	194.800
483.96	196.400
484.32	195.900
484.68	197.050
485.04	195.850
485.40	196.100
485.76	197.050
486.12	198.300
486.48	198.200
486.83	199.200
487.19	198.950
487.55	199.800
487.91	199.200
488.27	198.350
488.63	201.250
488.99	200.150
489.35	201.950
489.71	202.150
490.07	200.050
490.43	200.400
490.78	201.600
491.14	202.600
491.50	202.750
491.86	204.350
492.22	203.350
492.58	202.300
492.94	202.100
493.30	203.950
493.65	204.100
494.01	206.700
494.37	209.000
494.73	208.250
495.09	208.600
495.45	209.350
495.80	209.000
496.16	210.450
496.52	209.550
496.88	211.600
497.24	210.500
497.60	214.250
497.95	211.450
498.31	211.300
498.67	212.450
499.03	214.600
499.39	214.850
499.74	216.400
500.10	217.000
500.46	219.400
500.82	219.800
501.18	223.300
501.53	223.550
501.89	224.850
502.25	227.400
502.61	226.650
502.96	230.950
503.32	233.300
503.68	236.400
504.04	237.050
504.40	238.800
504.75	241.000
505.11	242.600
505.47	246.650
505.82	251.150
506.18	253.850
506.54	255.000
506.90	259.500
507.25	262.500
507.61	271.050
507.97	282.300
508.33	289.300
508.68	301.750
509.04	314.300
509.40	327.650
509.75	326.850
510.11	332.400
510.47	331.450
510.82	339.900
511.18	348.100
511.54	355.950
511.89	351.150
512.25	354.500
512.61	358.700
512.96	356.600
513.32	359.650
513.68	359.550
514.03	367.450
514.39	377.500
514.75	392.450
515.10	413.350
515.46	422.000
515.82	427.800
516.17	430.200
516.53	438.300
516.89	448.900
517.24	455.150
517.60	461.450
517.95	479.000
518.31	479.600
518.67	488.000
519.02	494.700
519.38	502.350
519.73	514.400
520.09	554.200
520.45	589.200
520.80	627.500
521.16	655.400
521.51	688.150
521.87	742.200
522.22	787.850
522.58	848.850
522.94	944.250
523.29	1220.500
523.65	1732.300
524.00	2195.800
524.36	2498.200
524.71	2346.400
525.07	2113.750
525.42	2209.400
525.78	2189.550
526.14	2256.450
526.49	2391.850
526.85	2529.000
527.20	2685.600
527.56	2877.400
527.91	3171.750
528.27	3578.300
528.62	4063.250
528.98	4064.500
529.33	4063.950
529.69	4063.400
530.04	4063.100
530.40	4063.450
530.75	4063.400
531.11	4063.450
531.46	4056.650
531.81	4055.950
532.17	4061.100
532.52	3565.550
532.88	2579.200
533.23	2314.950
533.59	2227.650
533.94	2104.650
534.30	1970.650
534.65	1852.950
535.01	1721.200
535.36	1563.950
535.71	1387.250
536.07	1227.650
536.42	1078.400
536.78	944.150
537.13	856.050
537.48	790.700
537.84	775.250
538.19	717.650
538.55	670.850
538.90	623.950
539.25	576.100
539.61	541.250
539.96	516.850
540.32	454.250
540.67	423.850
541.02	403.600
541.38	387.550
541.73	374.800
542.08	357.850
542.44	343.600
542.79	333.050
543.15	320.550
543.50	319.450
543.85	300.750
544.21	299.100
544.56	288.200
544.91	278.900
545.27	271.400
545.62	257.950
545.97	254.800
546.32	248.650
546.68	242.150
547.03	240.950
547.38	238.850
547.74	235.800
548.09	232.400
548.44	228.850
548.80	222.300
549.15	218.900
549.50	213.300
549.85	214.650
550.21	210.350
550.56	208.350
550.91	206.750
551.26	204.600
551.62	204.250
551.97	202.000
552.32	199.200
552.67	198.300
553.03	196.050
553.38	192.250
553.73	193.250
554.08	192.000
554.44	189.900
554.79	187.350
555.14	188.350
555.49	185.300
555.85	185.500
556.20	181.950
556.55	181.750
556.90	181.950
557.25	181.250
557.61	179.750
557.96	179.750
558.31	176.100
558.66	178.350
559.01	177.650
559.36	176.450
559.72	175.350
560.07	174.900
560.42	173.700
560.77	173.000
561.12	173.600
561.47	174.450
561.83	171.750
562.18	172.450
562.53	171.750
562.88	171.950
563.23	174.100
563.58	171.800
563.93	170.900
564.28	173.750
564.64	172.150
564.99	169.750
565.34	171.750
565.69	173.150
566.04	168.950
566.39	166.600
566.74	169.300
567.09	169.350
567.44	169.350
567.79	167.600
568.14	167.700
568.50	166.400
568.85	165.700
569.20	166.900
569.55	166.700
569.90	165.250
570.25	163.800
570.60	164.900
570.95	164.950
571.30	164.250
571.65	163.200
572.00	162.400
572.35	163.250
572.70	163.050
573.05	162.050
573.40	162.400
573.75	163.300
574.10	162.250
574.45	164.350
574.80	163.400
575.15	162.800
575.50	163.900
575.85	163.150
576.20	163.150
576.55	162.100
576.90	162.800
577.25	163.500
577.60	162.050
577.95	162.600
578.30	163.000
578.65	163.500
579.00	162.600
579.35	162.750
579.70	161.050
580.05	160.550
580.40	160.900
580.74	162.250
581.09	161.900
581.44	161.050
581.79	161.300
582.14	161.100
582.49	161.750
582.84	161.500
583.19	160.700
583.54	161.100
583.89	160.800
584.24	160.000
584.58	160.300
584.93	158.150
585.28	161.300
585.63	160.900
585.98	159.900
586.33	159.650
586.68	159.550
587.03	161.350
587.37	158.750
587.72	157.650
588.07	157.550
588.42	157.450
588.77	156.500
589.12	158.100
589.46	158.500
589.81	158.150
590.16	156.700
590.51	157.000
590.86	158.800
591.21	158.500
591.55	159.800
591.90	158.200
592.25	157.700
592.60	157.300
592.95	156.750
593.29	157.400
593.64	158.300
593.99	156.350
594.34	156.450
594.68	156.850
595.03	157.300
595.38	156.550
595.73	156.700
596.07	155.400
596.42	156.300
596.77	156.450
597.12	156.550
597.46	155.150
597.81	155.600
598.16	156.800
598.51	158.350
598.85	155.650
599.20	154.650
599.55	156.250
599.90	156.300
600.24	155.150
600.59	154.250
600.94	155.300
601.28	155.900
601.63	156.700
601.98	154.600
602.32	154.750
602.67	156.900
603.02	156.450
603.36	154.900
603.71	155.200
604.06	155.250
604.40	155.450
604.75	155.900
605.10	157.250
605.44	157.700
605.79	155.000
606.14	155.750
606.48	156.200
606.83	156.750
607.17	157.200
607.52	158.050
607.87	157.800
608.21	159.000
608.56	162.300
608.90	167.650
609.25	171.800
609.60	172.750
609.94	170.500
610.29	171.000
610.63	167.100
610.98	166.350
611.33	165.300
611.67	166.100
612.02	163.050
612.36	162.750
612.71	162.550
613.05	160.950
613.40	160.750
613.74	160.000
614.09	160.450
614.44	160.850
614.78	160.500
615.13	161.350
615.47	161.600
615.82	162.150
616.16	161.650
616.51	161.950
616.85	161.450
617.20	160.050
617.54	162.150
617.89	161.850
618.23	161.700
618.58	165.450
618.92	166.750
619.27	168.600
619.61	168.650
619.96	169.350
620.30	168.950
620.64	168.900
620.99	168.150
621.33	167.150
621.68	167.500
622.02	168.850
622.37	170.350
622.71	173.850
623.06	178.300
623.40	182.350
623.74	184.750
624.09	187.500
624.43	187.250
624.78	183.150
625.12	182.000
625.46	183.100
625.81	181.800
626.15	185.500
626.50	187.350
626.84	195.100
627.18	205.700
627.53	215.000
627.87	222.400
628.21	227.400
628.56	227.950
628.90	227.600
629.25	224.050
629.59	219.950
629.93	216.150
630.28	215.950
630.62	221.300
630.96	230.950
631.31	239.550
631.65	255.150
631.99	268.750
632.34	277.750
632.68	282.550
633.02	280.000
633.36	274.400
633.71	262.100
634.05	251.050
634.39	241.250
634.74	235.550
635.08	234.100
635.42	237.900
635.76	245.100
636.11	249.650
636.45	256.650
636.79	259.350
637.14	253.500
637.48	244.200
637.82	231.850
638.16	220.350
638.50	209.850
638.85	200.150
639.19	195.000
639.53	191.850
639.87	188.850
640.22	188.800
640.56	191.950
640.90	192.000
641.24	192.250
641.58	190.800
641.93	186.100
642.27	182.900
642.61	177.300
642.95	173.250
643.29	169.650
643.64	166.600
643.98	165.600
644.32	165.700
644.66	163.850
645.00	164.100
645.34	165.450
645.68	164.800
646.03	164.800
646.37	162.000
646.71	159.750
647.05	159.500
647.39	156.500
647.73	156.800
648.07	154.850
648.42	155.000
648.76	153.750
649.10	153.900
649.44	154.550
649.78	154.700
650.12	155.050
650.46	154.250
650.80	151.800
651.14	153.300
651.48	152.200
651.82	150.150
652.16	150.850
652.51	150.050
652.85	148.900
653.19	149.300
653.53	151.050
653.87	148.400
654.21	149.450
654.55	149.700
654.89	148.800
655.23	148.750
655.57	148.450
655.91	148.700
656.25	148.500
656.59	147.500
656.93	147.400
657.27	146.850
657.61	150.150
657.95	148.900
658.29	147.600
658.63	147.650
658.97	149.250
659.31	149.600
659.65	147.400
659.99	148.650
660.33	148.300
660.67	147.900
661.01	149.000
661.35	146.800
661.68	148.100
662.02	147.400
662.36	148.050
662.70	147.950
663.04	147.100
663.38	148.800
663.72	148.750
664.06	149.400
664.40	146.450
664.74	148.000
665.08	148.250
665.42	148.300
665.75	146.750
666.09	146.750
666.43	150.400
666.77	147.450
667.11	147.000
667.45	147.750
667.79	147.550
668.12	146.750
668.46	146.350
668.80	146.200
669.14	146.950
669.48	148.850
669.82	147.650
670.16	148.550
670.49	147.200
670.83	147.800
671.17	146.250
671.51	146.750
671.85	145.650
672.18	146.650
672.52	146.100
672.86	145.200
673.20	146.200
673.54	147.550
673.87	147.250
674.21	146.500
674.55	147.450
674.89	147.000
675.22	146.250
675.56	147.150
675.90	146.750
676.24	146.500
676.57	146.300
676.91	146.650
677.25	146.000
677.59	146.900
677.92	145.950
678.26	145.950
678.60	146.750
678.93	147.250
679.27	146.050
679.61	146.700
679.95	146.000
680.28	146.600
680.62	145.900
680.96	146.400
681.29	146.800
681.63	146.450
681.97	145.400
682.30	146.150
682.64	145.950
682.98	146.350
683.31	147.750
683.65	146.800
683.99	145.350
684.32	145.650
684.66	145.900
685.00	146.050
685.33	147.000
685.67	145.850
686.00	146.950
686.34	146.750
686.68	149.000
687.01	146.000
687.35	145.700
687.68	146.200
688.02	146.500
688.36	145.800
688.69	146.750
689.03	146.300
689.36	146.300
689.70	145.150
690.03	144.800
690.37	144.950
690.71	146.350
691.04	145.500
691.38	145.600
691.71	147.050
692.05	146.200
692.38	145.400
692.72	147.600
693.05	146.950
693.39	145.350
693.72	146.450
694.06	145.000
694.39	145.500
694.73	145.600
695.06	146.350
695.40	146.300
695.73	145.500
696.07	147.250
696.40	145.550
696.74	147.150
697.07	145.900
697.41	144.800
697.74	145.900
698.08	144.500
698.41	146.100
698.74	147.050
699.08	145.050
699.41	145.700
699.75	146.300
700.08	144.850
700.42	145.050
700.75	146.100
701.08	144.800
701.42	145.500
701.75	146.550
702.09	146.250
702.42	148.350
702.75	146.150
703.09	145.900
703.42	145.000
703.75	145.150
704.09	145.550
704.42	146.900
704.76	145.600
705.09	146.800
705.42	144.500
705.76	147.100
706.09	145.900
706.42	147.400
706.76	146.600
707.09	145.450
707.42	145.350
707.76	146.100
708.09	145.400
708.42	145.400
708.75	147.150
709.09	145.200
709.42	145.850
709.75	145.050
710.09	147.200
710.42	145.150
710.75	147.050
711.08	146.950
711.42	146.900
711.75	146.200
712.08	145.000
712.41	144.300
712.75	145.650
713.08	145.300
713.41	145.500
713.74	145.000
714.08	145.300
714.41	146.000
714.74	145.150
715.07	146.050
715.41	144.250
715.74	145.800
716.07	145.550
716.40	146.700
716.73	145.950
717.06	143.900
717.40	144.700
717.73	144.850
718.06	146.050
718.39	145.450
718.72	146.700
719.05	145.200
719.39	146.350
719.72	145.500
720.05	145.800
720.38	145.250
720.71	145.250
721.04	145.550
721.37	145.350
721.71	145.350
722.04	143.950
722.37	145.850
722.70	146.250
723.03	146.250
723.36	146.300
723.69	145.550
724.02	145.450
724.35	144.700
724.68	146.900
725.01	144.350
725.35	145.350
725.68	145.150
726.01	144.900
726.34	146.650
726.67	145.900
727.00	145.400
727.33	144.750
727.66	145.750
727.99	144.300
728.32	145.350
728.65	145.900
728.98	145.400
729.31	146.500
729.64	144.350
729.97	143.600
730.30	143.850
730.63	145.550
730.96	145.150
731.29	144.500
731.62	145.800
731.95	146.300
732.28	146.950
732.61	146.250
732.94	146.100
733.27	145.200
733.60	146.200
733.93	144.550
734.25	146.100
734.58	145.800
734.91	145.350
735.24	144.950
735.57	146.750
735.90	145.500
736.23	146.100
736.56	145.900
736.89	145.350
737.22	145.150
737.55	145.750
737.87	146.400
738.20	144.850
738.53	144.350
738.86	145.250
739.19	144.850
739.52	147.150
739.85	145.450
740.17	145.100
740.50	145.650
740.83	145.200
741.16	145.700
741.49	145.650
741.82	145.700
742.14	145.150
742.47	145.000
742.80	143.950
743.13	144.750
743.46	145.900
743.78	145.000
744.11	144.950
744.44	144.750
744.77	145.500
745.10	145.450
745.42	145.800
745.75	144.250
746.08	145.600
746.41	144.250
746.73	145.700
747.06	146.100
747.39	145.250
747.72	144.650
748.04	144.200
748.37	146.100
748.70	145.600
749.02	146.550
749.35	146.800
749.68	144.900
750.01	145.800
750.33	148.000
750.66	144.350
750.99	145.800
751.31	145.550
751.64	143.750
751.97	144.700
752.29	146.500
752.62	145.500
752.95	145.350
753.27	145.050
753.60	144.850
753.93	145.550
754.25	144.400
754.58	145.700
754.91	145.200
755.23	146.700
755.56	147.500
755.88	146.300
756.21	145.800
756.54	145.400
756.86	144.900
757.19	144.450
757.51	145.400
757.84	145.000
758.17	145.600
758.49	145.100
758.82	144.950
759.14	144.650
759.47	146.050
759.79	145.750
760.12	144.500
760.44	144.050
760.77	146.150
761.09	144.700
761.42	146.700
761.75	146.250
762.07	144.700
762.40	146.250
762.72	145.000
763.05	145.000
763.37	145.800
763.70	143.850
764.02	144.000
764.35	143.750
764.67	144.100
764.99	145.750
765.32	143.750
765.64	144.200
765.97	145.000
766.29	145.500
766.62	144.850
766.94	146.500
767.27	145.950
767.59	145.400
767.91	144.750
768.24	146.600
768.56	144.750
768.89	146.100
769.21	146.200
769.54	149.300
769.86	149.850
770.18	148.000
770.51	146.300
770.83	146.800
771.15	144.200
771.48	144.700
771.80	145.300
772.13	146.450
772.45	144.500
772.77	144.200
773.10	144.500
773.42	145.600
773.74	144.750
774.07	144.300
774.39	144.850
774.71	144.800
775.04	146.150
775.36	144.450
775.68	143.800
776.01	144.600
776.33	143.100
776.65	143.050
776.97	144.550
777.30	146.250
777.62	145.250
777.94	144.550
778.26	144.200
778.59	144.450
778.91	142.950
779.23	144.400
779.55	144.300
779.88	145.500
780.20	145.650
780.52	143.150
780.84	144.200
781.17	144.050
781.49	144.600
781.81	144.400
782.13	145.050
782.45	144.850
782.78	145.900
783.10	145.750
783.42	144.800
783.74	145.650
784.06	145.050
784.39	144.200
784.71	146.200
785.03	145.650
785.35	145.800
785.67	144.450
785.99	144.100
786.31	144.600
786.64	144.850
786.96	144.300
787.28	145.750
787.60	143.600
787.92	145.400
788.24	145.600
788.56	145.300
788.88	144.450
789.20	147.050
789.53	145.000
789.85	145.800
790.17	144.250
790.49	143.600
790.81	144.450
791.13	144.550
791.45	145.200
