OOIBase32 Version 2.0.6.5 Data File
++++++++++++++++++++++++++++++++++++
Date: 03-26-2021, 17:53:09
User: Valued Ocean Optics Customer
Spectrometer Serial Number: USB2E5007
Spectrometer Channel: Master
Integration Time (msec): 45
Spectra Averaged: 20
Boxcar Smoothing: 0
Correct for Electrical Dark: Disabled
Time Normalized: Disabled
Dual-beam Reference: Disabled
Reference Channel: Master
Temperature: Not acquired
Spectrometer Type: S2000
ADC Type: USB2000
Number of Pixels in File: 2048
Graph Title: 
>>>>>Begin Spectral Data<<<<<
340.15	0.000
340.52	160.650
340.90	161.650
341.27	162.100
341.64	163.650
342.01	167.250
342.38	167.350
342.76	169.050
343.13	169.750
343.50	170.000
343.87	171.750
344.24	170.200
344.61	172.050
344.98	170.500
345.36	169.250
345.73	171.350
346.10	169.050
346.47	170.400
346.84	168.950
347.21	168.850
347.58	170.300
347.96	172.700
348.33	169.300
348.70	168.250
349.07	168.900
349.44	172.100
349.81	175.250
350.18	170.650
350.55	172.550
350.92	172.350
351.30	172.650
351.67	172.100
352.04	172.450
352.41	172.750
352.78	174.850
353.15	173.650
353.52	172.800
353.89	174.150
354.26	173.100
354.63	173.050
355.00	174.250
355.37	173.150
355.75	174.050
356.12	172.400
356.49	173.000
356.86	173.400
357.23	174.450
357.60	173.550
357.97	173.000
358.34	173.700
358.71	175.150
359.08	174.000
359.45	173.500
359.82	175.150
360.19	174.850
360.56	174.600
360.93	174.750
361.30	175.700
361.67	173.850
362.04	175.450
362.41	174.200
362.78	173.850
363.15	176.950
363.52	175.750
363.89	174.450
364.26	174.000
364.63	175.200
365.00	175.450
365.37	175.200
365.74	176.850
366.11	175.750
366.48	177.500
366.85	175.350
367.22	176.450
367.59	176.150
367.96	174.700
368.33	176.800
368.70	176.650
369.07	177.500
369.44	177.150
369.81	176.950
370.18	175.950
370.55	176.950
370.92	177.400
371.29	175.400
371.66	175.500
372.03	176.350
372.40	178.300
372.77	176.900
373.13	176.600
373.50	178.050
373.87	175.450
374.24	176.450
374.61	178.050
374.98	176.400
375.35	178.200
375.72	175.900
376.09	178.500
376.46	176.850
376.83	177.300
377.20	176.950
377.56	177.450
377.93	177.800
378.30	178.400
378.67	176.700
379.04	177.350
379.41	177.800
379.78	178.350
380.15	179.350
380.51	178.550
380.88	177.050
381.25	178.050
381.62	178.400
381.99	177.250
382.36	177.600
382.73	177.750
383.09	178.750
383.46	178.550
383.83	178.300
384.20	179.650
384.57	179.100
384.94	179.600
385.31	177.600
385.67	178.850
386.04	179.250
386.41	178.550
386.78	178.550
387.15	180.250
387.51	179.100
387.88	178.700
388.25	180.050
388.62	177.700
388.99	178.700
389.36	179.350
389.72	179.750
390.09	185.500
390.46	180.050
390.83	179.400
391.19	179.500
391.56	180.250
391.93	179.550
392.30	180.100
392.67	180.550
393.03	180.850
393.40	179.850
393.77	179.650
394.14	180.550
394.50	180.150
394.87	180.300
395.24	179.150
395.61	181.000
395.97	181.100
396.34	180.150
396.71	180.000
397.08	182.550
397.44	179.650
397.81	181.150
398.18	181.600
398.55	180.050
398.91	181.600
399.28	180.900
399.65	181.300
400.01	181.150
400.38	180.450
400.75	180.400
401.12	180.850
401.48	180.800
401.85	182.050
402.22	180.600
402.58	180.450
402.95	183.300
403.32	182.050
403.68	181.350
404.05	180.550
404.42	181.500
404.78	182.300
405.15	182.050
405.52	182.100
405.88	182.400
406.25	182.950
406.62	180.350
406.98	181.500
407.35	181.450
407.72	182.550
408.08	181.400
408.45	182.900
408.82	182.800
409.18	181.250
409.55	182.950
409.91	182.000
410.28	181.900
410.65	181.350
411.01	183.150
411.38	181.750
411.75	182.400
412.11	184.550
412.48	182.700
412.84	182.750
413.21	182.400
413.58	180.800
413.94	183.250
414.31	183.050
414.67	182.250
415.04	181.800
415.41	183.400
415.77	183.250
416.14	183.550
416.50	182.700
416.87	183.250
417.23	181.100
417.60	183.500
417.97	183.050
418.33	183.050
418.70	182.350
419.06	185.200
419.43	182.500
419.79	183.400
420.16	183.300
420.52	183.950
420.89	182.800
421.25	184.100
421.62	183.650
421.98	184.300
422.35	183.600
422.72	183.150
423.08	184.700
423.45	183.850
423.81	184.650
424.18	184.700
424.54	183.200
424.91	184.850
425.27	183.150
425.64	183.800
426.00	184.150
426.37	184.500
426.73	183.400
427.09	186.350
427.46	183.700
427.82	186.150
428.19	183.750
428.55	185.000
428.92	184.050
429.28	185.600
429.65	184.800
430.01	186.350
430.38	184.100
430.74	183.800
431.11	185.450
431.47	185.400
431.83	185.450
432.20	186.000
432.56	185.850
432.93	185.250
433.29	185.650
433.66	189.850
434.02	192.500
434.38	190.600
434.75	188.550
435.11	186.800
435.48	184.400
435.84	184.100
436.20	185.300
436.57	185.400
436.93	186.150
437.30	184.300
437.66	184.800
438.02	186.150
438.39	185.650
438.75	184.950
439.12	186.250
439.48	186.550
439.84	187.600
440.21	184.700
440.57	184.600
440.93	185.350
441.30	184.150
441.66	186.550
442.02	185.400
442.39	184.700
442.75	185.250
443.11	185.050
443.48	187.200
443.84	185.150
444.20	185.350
444.57	185.550
444.93	185.600
445.29	187.250
445.66	186.300
446.02	185.850
446.38	186.250
446.75	185.800
447.11	186.900
447.47	185.400
447.84	183.500
448.20	185.750
448.56	186.700
448.92	186.150
449.29	187.700
449.65	186.700
450.01	185.400
450.37	186.400
450.74	185.050
451.10	186.400
451.46	186.450
451.83	187.100
452.19	189.000
452.55	184.750
452.91	186.000
453.28	187.550
453.64	185.550
454.00	189.700
454.36	186.350
454.72	186.250
455.09	187.200
455.45	185.950
455.81	186.950
456.17	186.800
456.54	186.950
456.90	185.650
457.26	187.500
457.62	186.800
457.98	185.750
458.35	186.750
458.71	185.850
459.07	185.800
459.43	188.750
459.79	184.550
460.16	186.300
460.52	185.150
460.88	184.650
461.24	186.950
461.60	185.000
461.96	185.400
462.33	186.450
462.69	186.000
463.05	186.200
463.41	185.050
463.77	187.300
464.13	185.200
464.49	188.300
464.86	187.900
465.22	186.550
465.58	187.700
465.94	186.450
466.30	187.650
466.66	188.250
467.02	186.350
467.38	187.700
467.75	186.950
468.11	188.800
468.47	189.500
468.83	187.500
469.19	188.150
469.55	188.100
469.91	188.300
470.27	187.000
470.63	188.000
470.99	189.600
471.35	189.200
471.72	188.050
472.08	187.600
472.44	189.650
472.80	187.400
473.16	189.550
473.52	191.100
473.88	189.750
474.24	190.100
474.60	187.600
474.96	190.150
475.32	190.100
475.68	189.350
476.04	189.550
476.40	190.250
476.76	190.650
477.12	190.900
477.48	191.850
477.84	190.450
478.20	190.100
478.56	191.550
478.92	192.500
479.28	191.100
479.64	191.850
480.00	190.050
480.36	193.000
480.72	190.750
481.08	193.650
481.44	195.850
481.80	193.950
482.16	193.050
482.52	193.750
482.88	194.250
483.24	193.800
483.60	196.250
483.96	193.800
484.32	196.950
484.68	196.550
485.04	197.400
485.40	196.700
485.76	198.150
486.12	197.200
486.48	198.250
486.83	198.200
487.19	199.250
487.55	198.500
487.91	199.750
488.27	197.900
488.63	200.300
488.99	200.050
489.35	201.250
489.71	200.450
490.07	200.400
490.43	200.550
490.78	200.200
491.14	203.850
491.50	201.950
491.86	202.850
492.22	202.900
492.58	202.650
492.94	202.950
493.30	206.050
493.65	205.800
494.01	206.100
494.37	206.850
494.73	205.650
495.09	207.650
495.45	206.850
495.80	209.200
496.16	211.400
496.52	209.800
496.88	209.700
497.24	211.450
497.60	213.700
497.95	212.150
498.31	211.650
498.67	213.450
499.03	215.050
499.39	216.250
499.74	216.950
500.10	216.800
500.46	220.700
500.82	221.350
501.18	222.600
501.53	222.350
501.89	223.850
502.25	224.650
502.61	228.050
502.96	231.300
503.32	231.950
503.68	235.450
504.04	235.700
504.40	239.500
504.75	237.750
505.11	241.500
505.47	244.600
505.82	249.550
506.18	251.500
506.54	256.650
506.90	256.550
507.25	259.400
507.61	265.700
507.97	274.300
508.33	289.950
508.68	302.350
509.04	314.150
509.40	321.350
509.75	321.900
510.11	329.900
510.47	333.500
510.82	339.300
511.18	342.900
511.54	349.600
511.89	351.800
512.25	355.300
512.61	356.250
512.96	358.100
513.32	359.100
513.68	364.550
514.03	358.750
514.39	372.400
514.75	389.550
515.10	413.600
515.46	424.700
515.82	425.000
516.17	427.100
516.53	438.050
516.89	442.900
517.24	448.350
517.60	458.350
517.95	471.650
518.31	482.400
518.67	495.500
519.02	495.250
519.38	512.450
519.73	517.550
520.09	551.600
520.45	593.750
520.80	634.750
521.16	649.000
521.51	693.500
521.87	744.650
522.22	766.750
522.58	850.050
522.94	961.700
523.29	1232.300
523.65	1767.000
524.00	2252.200
524.36	2495.300
524.71	2325.250
525.07	2160.100
525.42	2197.350
525.78	2298.650
526.14	2306.450
526.49	2403.500
526.85	2525.250
527.20	2691.600
527.56	2865.950
527.91	3012.850
528.27	3559.150
528.62	4062.500
528.98	4063.600
529.33	4062.550
529.69	4063.000
530.04	4063.200
530.40	4062.450
530.75	4062.600
531.11	4062.300
531.46	4056.450
531.81	4055.000
532.17	4061.950
532.52	3519.950
532.88	2616.250
533.23	2350.000
533.59	2239.600
533.94	2116.350
534.30	2009.700
534.65	1788.100
535.01	1636.450
535.36	1522.600
535.71	1361.950
536.07	1225.450
536.42	1059.500
536.78	897.150
537.13	849.850
537.48	799.050
537.84	775.100
538.19	724.900
538.55	647.900
538.90	614.800
539.25	589.050
539.61	544.350
539.96	501.850
540.32	450.700
540.67	411.800
541.02	390.450
541.38	386.650
541.73	372.100
542.08	354.800
542.44	342.700
542.79	329.850
543.15	323.500
543.50	315.450
543.85	308.650
544.21	300.750
544.56	286.700
544.91	277.300
545.27	268.200
545.62	259.600
545.97	255.100
546.32	249.850
546.68	245.250
547.03	244.550
547.38	240.300
547.74	233.450
548.09	230.800
548.44	227.150
548.80	220.500
549.15	216.050
549.50	212.100
549.85	211.350
550.21	209.650
550.56	208.300
550.91	206.550
551.26	202.050
551.62	202.800
551.97	201.750
552.32	198.300
552.67	195.750
553.03	195.900
553.38	195.250
553.73	193.300
554.08	191.100
554.44	188.750
554.79	187.000
555.14	186.950
555.49	184.250
555.85	185.450
556.20	182.850
556.55	182.250
556.90	180.550
557.25	179.800
557.61	179.400
557.96	178.600
558.31	175.750
558.66	174.550
559.01	176.050
559.36	174.450
559.72	174.100
560.07	173.850
560.42	174.100
560.77	175.500
561.12	173.150
561.47	173.100
561.83	172.600
562.18	171.250
562.53	172.700
562.88	172.000
563.23	174.550
563.58	171.100
563.93	170.200
564.28	172.600
564.64	168.950
564.99	167.700
565.34	168.500
565.69	170.350
566.04	168.800
566.39	169.500
566.74	169.850
567.09	168.350
567.44	166.850
567.79	168.000
568.14	168.550
568.50	166.000
568.85	164.950
569.20	165.000
569.55	167.000
569.90	164.900
570.25	165.550
570.60	165.800
570.95	164.350
571.30	163.900
571.65	161.800
572.00	162.550
572.35	163.550
572.70	162.750
573.05	163.350
573.40	162.400
573.75	163.250
574.10	164.000
574.45	163.150
574.80	163.650
575.15	162.800
575.50	163.050
575.85	161.950
576.20	161.650
576.55	159.850
576.90	161.000
577.25	163.400
577.60	160.600
577.95	162.400
578.30	162.850
578.65	161.250
579.00	160.950
579.35	161.650
579.70	161.700
580.05	160.950
580.40	160.350
580.74	163.100
581.09	161.900
581.44	161.000
581.79	161.950
582.14	159.850
582.49	162.300
582.84	161.350
583.19	159.000
583.54	161.850
583.89	161.900
584.24	158.850
584.58	161.450
584.93	159.250
585.28	160.800
585.63	160.850
585.98	160.000
586.33	159.300
586.68	159.750
587.03	160.350
587.37	158.300
587.72	158.100
588.07	156.800
588.42	157.450
588.77	156.800
589.12	157.600
589.46	157.050
589.81	158.150
590.16	157.550
590.51	157.450
590.86	159.050
591.21	158.150
591.55	157.950
591.90	156.300
592.25	157.150
592.60	157.700
592.95	156.400
593.29	156.600
593.64	157.650
593.99	156.150
594.34	156.100
594.68	158.200
595.03	156.350
595.38	155.650
595.73	155.550
596.07	155.350
596.42	155.450
596.77	155.450
597.12	155.400
597.46	155.900
597.81	155.400
598.16	155.600
598.51	156.350
598.85	154.600
599.20	154.450
599.55	155.200
599.90	155.300
600.24	154.700
600.59	155.450
600.94	154.250
601.28	155.200
601.63	155.150
601.98	155.350
602.32	154.300
602.67	155.500
603.02	155.750
603.36	156.300
603.71	155.300
604.06	157.350
604.40	155.500
604.75	156.100
605.10	155.150
605.44	157.550
605.79	154.950
606.14	155.000
606.48	155.600
606.83	156.000
607.17	155.950
607.52	158.450
607.87	158.300
608.21	161.100
608.56	162.500
608.90	169.500
609.25	174.050
609.60	173.450
609.94	172.900
610.29	170.250
610.63	166.750
610.98	166.050
611.33	164.200
611.67	164.950
612.02	164.400
612.36	162.600
612.71	163.400
613.05	162.000
613.40	161.100
613.74	160.750
614.09	158.800
614.44	159.250
614.78	157.000
615.13	159.250
615.47	158.900
615.82	159.700
616.16	159.950
616.51	161.400
616.85	160.100
617.20	160.000
617.54	160.200
617.89	159.350
618.23	159.000
618.58	158.750
618.92	159.050
619.27	159.450
619.61	162.200
619.96	163.000
620.30	163.700
620.64	165.750
620.99	163.700
621.33	163.800
621.68	163.600
622.02	161.250
622.37	162.050
622.71	161.500
623.06	163.300
623.40	164.250
623.74	166.000
624.09	171.300
624.43	169.950
624.78	172.550
625.12	170.700
625.46	172.500
625.81	169.550
626.15	170.600
626.50	169.750
626.84	167.950
627.18	171.000
627.53	174.000
627.87	175.650
628.21	181.500
628.56	187.350
628.90	189.850
629.25	192.950
629.59	192.900
629.93	190.800
630.28	188.850
630.62	186.550
630.96	186.450
631.31	185.900
631.65	190.700
631.99	195.750
632.34	203.400
632.68	213.850
633.02	221.450
633.36	232.650
633.71	233.950
634.05	235.300
634.39	230.700
634.74	225.450
635.08	221.100
635.42	217.150
635.76	220.250
636.11	219.950
636.45	229.500
636.79	236.350
637.14	247.300
637.48	259.800
637.82	267.700
638.16	269.250
638.50	264.800
638.85	253.900
639.19	243.300
639.53	230.050
639.87	219.600
640.22	214.750
640.56	212.000
640.90	213.150
641.24	215.150
641.58	220.500
641.93	221.350
642.27	224.400
642.61	221.150
642.95	214.800
643.29	206.400
643.64	198.250
643.98	189.700
644.32	183.000
644.66	179.500
645.00	177.500
645.34	177.500
645.68	176.050
646.03	179.400
646.37	177.550
646.71	177.600
647.05	177.050
647.39	172.500
647.73	170.800
648.07	167.700
648.42	164.050
648.76	161.700
649.10	160.800
649.44	160.000
649.78	157.550
650.12	157.200
650.46	158.400
650.80	158.250
651.14	158.900
651.48	156.750
651.82	155.850
652.16	155.650
652.51	153.000
652.85	151.200
653.19	150.900
653.53	150.550
653.87	148.950
654.21	149.450
654.55	148.750
654.89	149.900
655.23	151.000
655.57	149.400
655.91	149.300
656.25	149.500
656.59	148.650
656.93	148.400
657.27	147.500
657.61	150.300
657.95	148.300
658.29	148.000
658.63	147.400
658.97	148.500
659.31	149.250
659.65	148.150
659.99	149.300
660.33	148.700
660.67	149.650
661.01	148.150
661.35	148.200
661.68	148.600
662.02	146.850
662.36	145.400
662.70	148.250
663.04	147.700
663.38	148.450
663.72	146.900
664.06	147.400
664.40	146.450
664.74	146.700
665.08	147.950
665.42	147.800
665.75	146.250
666.09	146.450
666.43	149.350
666.77	148.200
667.11	146.150
667.45	146.950
667.79	147.550
668.12	146.900
668.46	146.650
668.80	146.350
669.14	147.050
669.48	147.600
669.82	147.900
670.16	147.950
670.49	147.250
670.83	146.350
671.17	146.450
671.51	147.000
671.85	146.150
672.18	146.350
672.52	145.850
672.86	147.000
673.20	146.900
673.54	146.950
673.87	146.300
674.21	147.050
674.55	144.800
674.89	146.300
675.22	147.050
675.56	146.550
675.90	147.450
676.24	146.400
676.57	145.500
676.91	146.300
677.25	146.400
677.59	145.700
677.92	145.700
678.26	145.750
678.60	146.250
678.93	146.050
679.27	145.900
679.61	146.400
679.95	146.450
680.28	147.100
680.62	145.000
680.96	147.000
681.29	145.500
681.63	145.800
681.97	145.750
682.30	145.550
682.64	145.700
682.98	146.250
683.31	146.350
683.65	145.800
683.99	145.850
684.32	146.400
684.66	146.400
685.00	145.100
685.33	146.400
685.67	145.800
686.00	145.250
686.34	145.200
686.68	148.750
687.01	146.050
687.35	144.700
687.68	146.700
688.02	145.400
688.36	145.900
688.69	145.100
689.03	146.300
689.36	146.650
689.70	144.750
690.03	147.350
690.37	145.950
690.71	145.700
691.04	146.200
691.38	145.800
691.71	146.500
692.05	145.900
692.38	145.750
692.72	145.750
693.05	146.600
693.39	145.650
693.72	145.700
694.06	145.950
694.39	145.300
694.73	143.850
695.06	145.000
695.40	144.600
695.73	145.700
696.07	147.550
696.40	145.850
696.74	147.200
697.07	146.650
697.41	145.700
697.74	147.100
698.08	145.700
698.41	145.250
698.74	145.700
699.08	146.100
699.41	145.850
699.75	145.600
700.08	145.400
700.42	145.800
700.75	144.950
701.08	145.650
701.42	145.750
701.75	145.850
702.09	146.700
702.42	148.050
702.75	145.300
703.09	146.400
703.42	145.600
703.75	143.450
704.09	144.700
704.42	146.600
704.76	145.800
705.09	146.300
705.42	146.050
705.76	146.600
706.09	146.200
706.42	147.700
706.76	145.100
707.09	145.500
707.42	146.300
707.76	145.600
708.09	145.300
708.42	145.650
708.75	146.950
709.09	145.150
709.42	145.700
709.75	145.850
710.09	146.650
710.42	145.900
710.75	145.550
711.08	145.450
711.42	145.500
711.75	145.700
712.08	145.750
712.41	145.050
712.75	145.150
713.08	144.750
713.41	145.500
713.74	145.000
714.08	146.200
714.41	146.200
714.74	144.550
715.07	146.950
715.41	145.200
715.74	145.450
716.07	144.300
716.40	145.600
716.73	145.100
717.06	144.200
717.40	145.750
717.73	144.100
718.06	144.600
718.39	145.050
718.72	144.600
719.05	145.000
719.39	145.400
719.72	146.000
720.05	146.150
720.38	146.000
720.71	145.250
721.04	145.650
721.37	144.700
721.71	144.150
722.04	144.650
722.37	145.050
722.70	144.500
723.03	145.100
723.36	144.100
723.69	145.050
724.02	144.250
724.35	144.550
724.68	146.650
725.01	145.050
725.35	144.650
725.68	145.200
726.01	145.300
726.34	145.450
726.67	145.450
727.00	144.450
727.33	145.250
727.66	145.100
727.99	144.850
728.32	145.750
728.65	145.050
728.98	145.700
729.31	145.350
729.64	144.950
729.97	144.550
730.30	145.300
730.63	146.050
730.96	145.200
731.29	145.150
731.62	145.150
731.95	145.450
732.28	146.600
732.61	146.200
732.94	145.450
733.27	145.000
733.60	145.200
733.93	144.550
734.25	144.400
734.58	145.100
734.91	144.600
735.24	144.400
735.57	145.450
735.90	145.550
736.23	145.700
736.56	144.550
736.89	144.200
737.22	146.250
737.55	143.750
737.87	145.550
738.20	144.450
738.53	145.500
738.86	145.200
739.19	144.400
739.52	146.800
739.85	143.850
740.17	144.450
740.50	143.800
740.83	144.600
741.16	144.250
741.49	146.050
741.82	145.450
742.14	145.200
742.47	145.700
742.80	145.750
743.13	144.650
743.46	146.000
743.78	145.850
744.11	145.850
744.44	144.950
744.77	144.500
745.10	145.250
745.42	145.150
745.75	144.100
746.08	145.500
746.41	145.900
746.73	144.900
747.06	146.300
747.39	144.750
747.72	144.650
748.04	144.050
748.37	145.350
748.70	145.050
749.02	145.450
749.35	145.250
749.68	144.900
750.01	145.000
750.33	146.450
750.66	144.650
750.99	145.400
751.31	145.200
751.64	144.950
751.97	144.150
752.29	145.850
752.62	144.900
752.95	145.850
753.27	146.100
753.60	145.750
753.93	144.750
754.25	144.600
754.58	145.300
754.91	146.000
755.23	146.250
755.56	147.700
755.88	145.600
756.21	145.650
756.54	144.900
756.86	145.100
757.19	144.450
757.51	145.750
757.84	146.450
758.17	145.000
758.49	144.700
758.82	143.850
759.14	145.350
759.47	145.950
759.79	145.700
760.12	146.650
760.44	144.300
760.77	145.150
761.09	144.950
761.42	145.400
761.75	146.500
762.07	145.600
762.40	145.350
762.72	145.050
763.05	145.450
763.37	145.650
763.70	143.850
764.02	145.450
764.35	144.550
764.67	144.000
764.99	144.550
765.32	143.850
765.64	145.150
765.97	143.600
766.29	144.900
766.62	144.050
766.94	146.000
767.27	145.000
767.59	144.600
767.91	144.450
768.24	145.700
768.56	143.150
768.89	146.050
769.21	147.050
769.54	148.450
769.86	149.800
770.18	148.250
770.51	146.400
770.83	144.700
771.15	144.650
771.48	144.800
771.80	145.200
772.13	145.900
772.45	144.350
772.77	145.000
773.10	145.150
773.42	145.000
773.74	144.850
774.07	144.450
774.39	145.400
774.71	144.250
775.04	146.100
775.36	144.200
775.68	143.800
776.01	143.650
776.33	144.450
776.65	144.400
776.97	144.300
777.30	146.450
777.62	146.100
777.94	145.000
778.26	144.150
778.59	144.000
778.91	143.150
779.23	144.900
779.55	145.400
779.88	145.200
780.20	144.600
780.52	143.950
780.84	144.350
781.17	143.700
781.49	144.050
781.81	145.150
782.13	145.600
782.45	144.900
782.78	144.900
783.10	144.950
783.42	145.200
783.74	145.150
784.06	144.300
784.39	143.600
784.71	145.200
785.03	144.550
785.35	146.450
785.67	145.050
785.99	144.000
786.31	144.600
786.64	146.200
786.96	145.350
787.28	145.150
787.60	143.200
787.92	144.750
788.24	144.750
788.56	143.750
788.88	144.750
789.20	146.900
789.53	146.100
789.85	144.900
790.17	144.550
790.49	145.050
790.81	144.800
791.13	144.650
791.45	144.750
