OOIBase32 Version 2.0.6.5 Data File
++++++++++++++++++++++++++++++++++++
Date: 03-26-2021, 17:55:07
User: Valued Ocean Optics Customer
Spectrometer Serial Number: USB2E5007
Spectrometer Channel: Master
Integration Time (msec): 45
Spectra Averaged: 20
Boxcar Smoothing: 0
Correct for Electrical Dark: Disabled
Time Normalized: Disabled
Dual-beam Reference: Disabled
Reference Channel: Master
Temperature: Not acquired
Spectrometer Type: S2000
ADC Type: USB2000
Number of Pixels in File: 2048
Graph Title: 
>>>>>Begin Spectral Data<<<<<
340.15	0.000
340.52	161.100
340.90	162.800
341.27	162.350
341.64	166.200
342.01	168.650
342.38	169.250
342.76	170.250
343.13	172.850
343.50	171.800
343.87	171.550
344.24	172.200
344.61	172.050
344.98	172.650
345.36	173.000
345.73	172.550
346.10	169.850
346.47	172.950
346.84	170.100
347.21	170.700
347.58	170.650
347.96	174.700
348.33	169.600
348.70	170.800
349.07	171.750
349.44	171.950
349.81	176.800
350.18	173.700
350.55	172.250
350.92	174.400
351.30	174.250
351.67	174.750
352.04	172.450
352.41	175.400
352.78	177.000
353.15	174.250
353.52	173.650
353.89	178.350
354.26	174.350
354.63	175.750
355.00	175.800
355.37	175.100
355.75	175.550
356.12	174.750
356.49	176.350
356.86	175.050
357.23	173.350
357.60	175.450
357.97	176.250
358.34	174.900
358.71	177.850
359.08	175.250
359.45	175.350
359.82	175.500
360.19	176.100
360.56	174.700
360.93	177.050
361.30	174.350
361.67	175.750
362.04	177.100
362.41	173.800
362.78	176.800
363.15	178.350
363.52	176.750
363.89	176.700
364.26	176.800
364.63	175.950
365.00	176.850
365.37	175.850
365.74	176.850
366.11	177.850
366.48	177.450
366.85	177.350
367.22	176.850
367.59	179.550
367.96	175.450
368.33	176.950
368.70	176.750
369.07	178.050
369.44	177.150
369.81	179.000
370.18	179.250
370.55	175.900
370.92	178.400
371.29	177.700
371.66	179.150
372.03	178.000
372.40	177.450
372.77	178.600
373.13	177.750
373.50	179.550
373.87	178.500
374.24	178.000
374.61	178.550
374.98	178.500
375.35	180.050
375.72	178.700
376.09	179.050
376.46	178.200
376.83	179.150
377.20	177.500
377.56	178.850
377.93	180.700
378.30	180.250
378.67	179.500
379.04	178.650
379.41	180.650
379.78	180.550
380.15	181.950
380.51	179.700
380.88	178.700
381.25	180.050
381.62	180.650
381.99	178.550
382.36	180.400
382.73	177.250
383.09	180.700
383.46	179.300
383.83	181.000
384.20	179.950
384.57	180.750
384.94	179.550
385.31	180.500
385.67	180.300
386.04	178.650
386.41	179.400
386.78	180.950
387.15	180.900
387.51	181.450
387.88	181.000
388.25	180.700
388.62	180.750
388.99	180.500
389.36	180.950
389.72	180.350
390.09	186.650
390.46	182.450
390.83	181.150
391.19	181.250
391.56	179.900
391.93	180.400
392.30	182.700
392.67	182.500
393.03	181.250
393.40	180.900
393.77	180.150
394.14	182.350
394.50	181.250
394.87	183.150
395.24	181.700
395.61	181.600
395.97	181.850
396.34	181.600
396.71	180.200
397.08	182.750
397.44	181.400
397.81	182.500
398.18	182.450
398.55	180.900
398.91	182.600
399.28	182.950
399.65	182.950
400.01	183.000
400.38	180.850
400.75	180.800
401.12	184.000
401.48	181.600
401.85	181.950
402.22	182.350
402.58	184.550
402.95	184.200
403.32	183.250
403.68	183.050
404.05	182.250
404.42	184.500
404.78	185.350
405.15	183.150
405.52	183.300
405.88	182.650
406.25	183.050
406.62	183.800
406.98	183.400
407.35	183.700
407.72	183.700
408.08	184.700
408.45	183.900
408.82	183.450
409.18	183.200
409.55	183.950
409.91	183.650
410.28	183.000
410.65	183.800
411.01	182.700
411.38	182.450
411.75	183.250
412.11	183.250
412.48	185.050
412.84	185.200
413.21	182.150
413.58	183.550
413.94	183.350
414.31	183.650
414.67	185.600
415.04	184.250
415.41	185.350
415.77	185.700
416.14	185.050
416.50	184.400
416.87	184.150
417.23	184.400
417.60	187.150
417.97	185.100
418.33	185.950
418.70	184.300
419.06	187.500
419.43	184.300
419.79	184.650
420.16	185.000
420.52	185.050
420.89	185.400
421.25	185.800
421.62	184.950
421.98	184.350
422.35	184.500
422.72	186.850
423.08	185.150
423.45	186.650
423.81	186.350
424.18	186.400
424.54	185.700
424.91	184.450
425.27	187.600
425.64	186.300
426.00	185.550
426.37	185.800
426.73	186.850
427.09	187.700
427.46	186.750
427.82	188.750
428.19	186.550
428.55	185.750
428.92	188.650
429.28	186.800
429.65	185.400
430.01	186.800
430.38	186.650
430.74	185.350
431.11	188.050
431.47	187.450
431.83	188.050
432.20	186.900
432.56	187.100
432.93	186.500
433.29	188.650
433.66	192.900
434.02	194.400
434.38	191.300
434.75	189.850
435.11	187.600
435.48	187.050
435.84	184.700
436.20	186.650
436.57	185.200
436.93	186.950
437.30	186.950
437.66	187.700
438.02	187.350
438.39	188.050
438.75	186.250
439.12	188.100
439.48	188.950
439.84	189.600
440.21	188.150
440.57	187.150
440.93	187.650
441.30	186.600
441.66	187.650
442.02	188.150
442.39	186.700
442.75	188.050
443.11	187.550
443.48	189.000
443.84	188.000
444.20	187.100
444.57	186.900
444.93	186.550
445.29	190.000
445.66	188.650
446.02	187.900
446.38	186.200
446.75	186.350
447.11	185.950
447.47	187.700
447.84	187.150
448.20	188.750
448.56	188.200
448.92	186.950
449.29	188.800
449.65	188.700
450.01	187.200
450.37	187.600
450.74	187.800
451.10	186.350
451.46	188.150
451.83	187.100
452.19	190.600
452.55	186.450
452.91	187.500
453.28	189.100
453.64	186.150
454.00	191.050
454.36	186.750
454.72	188.050
455.09	187.050
455.45	188.700
455.81	188.050
456.17	188.200
456.54	188.700
456.90	188.650
457.26	189.250
457.62	187.950
457.98	187.950
458.35	187.500
458.71	188.000
459.07	188.850
459.43	188.150
459.79	188.600
460.16	187.600
460.52	187.750
460.88	187.300
461.24	188.700
461.60	187.650
461.96	189.950
462.33	189.450
462.69	188.650
463.05	186.200
463.41	188.100
463.77	190.100
464.13	188.700
464.49	189.250
464.86	188.000
465.22	189.450
465.58	189.300
465.94	187.850
466.30	189.050
466.66	190.700
467.02	189.200
467.38	189.550
467.75	189.000
468.11	191.900
468.47	190.900
468.83	189.250
469.19	189.500
469.55	189.050
469.91	189.700
470.27	190.350
470.63	188.500
470.99	191.050
471.35	190.600
471.72	191.150
472.08	191.700
472.44	190.900
472.80	190.850
473.16	190.600
473.52	190.400
473.88	193.150
474.24	191.650
474.60	189.600
474.96	191.900
475.32	191.200
475.68	192.350
476.04	192.350
476.40	192.150
476.76	193.150
477.12	192.500
477.48	193.450
477.84	192.550
478.20	193.000
478.56	194.250
478.92	195.000
479.28	192.900
479.64	195.050
480.00	192.750
480.36	194.950
480.72	194.150
481.08	196.750
481.44	197.800
481.80	196.550
482.16	196.600
482.52	196.200
482.88	195.500
483.24	195.050
483.60	196.600
483.96	198.800
484.32	198.050
484.68	198.850
485.04	200.650
485.40	200.750
485.76	200.000
486.12	200.550
486.48	201.350
486.83	199.450
487.19	200.050
487.55	201.200
487.91	202.400
488.27	200.700
488.63	203.550
488.99	203.400
489.35	202.350
489.71	204.300
490.07	203.700
490.43	201.650
490.78	203.100
491.14	206.100
491.50	205.750
491.86	205.250
492.22	205.500
492.58	205.700
492.94	205.400
493.30	208.350
493.65	208.100
494.01	209.150
494.37	210.450
494.73	209.550
495.09	211.700
495.45	212.150
495.80	212.600
496.16	213.350
496.52	213.400
496.88	213.400
497.24	215.250
497.60	216.350
497.95	215.750
498.31	218.100
498.67	215.650
499.03	219.500
499.39	218.100
499.74	221.850
500.10	221.550
500.46	223.850
500.82	225.200
501.18	226.300
501.53	226.650
501.89	229.050
502.25	232.450
502.61	232.300
502.96	235.150
503.32	235.950
503.68	240.750
504.04	240.300
504.40	243.000
504.75	244.850
505.11	247.500
505.47	250.100
505.82	255.100
506.18	258.850
506.54	259.400
506.90	263.650
507.25	270.750
507.61	276.000
507.97	283.900
508.33	293.400
508.68	311.950
509.04	325.350
509.40	330.750
509.75	337.300
510.11	346.800
510.47	346.800
510.82	347.400
511.18	352.450
511.54	360.700
511.89	363.100
512.25	368.500
512.61	370.700
512.96	369.350
513.32	370.400
513.68	374.250
514.03	375.100
514.39	385.100
514.75	397.400
515.10	420.100
515.46	439.500
515.82	439.850
516.17	448.800
516.53	451.550
516.89	458.000
517.24	465.950
517.60	485.600
517.95	490.100
518.31	494.900
518.67	505.850
519.02	525.500
519.38	538.750
519.73	521.850
520.09	558.900
520.45	603.450
520.80	662.850
521.16	699.700
521.51	761.050
521.87	803.800
522.22	849.700
522.58	897.350
522.94	1039.050
523.29	1315.000
523.65	1891.150
524.00	2331.900
524.36	2659.400
524.71	2614.350
525.07	2379.250
525.42	2306.100
525.78	2380.600
526.14	2452.450
526.49	2600.100
526.85	2730.200
527.20	2878.750
527.56	3095.850
527.91	3402.350
528.27	3870.300
528.62	4060.900
528.98	4062.750
529.33	4062.750
529.69	4062.700
530.04	4062.500
530.40	4062.250
530.75	4062.650
531.11	4062.700
531.46	4056.200
531.81	4054.500
532.17	4061.100
532.52	3824.350
532.88	2794.050
533.23	2580.300
533.59	2426.800
533.94	2264.600
534.30	2077.300
534.65	1939.750
535.01	1828.300
535.36	1615.000
535.71	1438.700
536.07	1278.750
536.42	1109.850
536.78	973.650
537.13	897.050
537.48	832.600
537.84	793.750
538.19	748.450
538.55	686.000
538.90	666.950
539.25	625.850
539.61	573.100
539.96	529.900
540.32	476.800
540.67	437.350
541.02	418.050
541.38	392.950
541.73	394.600
542.08	376.750
542.44	354.950
542.79	340.700
543.15	331.700
543.50	325.500
543.85	311.100
544.21	307.450
544.56	294.650
544.91	290.400
545.27	278.500
545.62	265.250
545.97	263.050
546.32	256.600
546.68	250.900
547.03	246.250
547.38	245.700
547.74	242.500
548.09	236.350
548.44	233.000
548.80	226.450
549.15	222.750
549.50	218.100
549.85	217.900
550.21	215.500
550.56	210.350
550.91	209.350
551.26	206.700
551.62	204.250
551.97	202.900
552.32	201.800
552.67	202.000
553.03	199.700
553.38	196.850
553.73	197.400
554.08	194.450
554.44	192.550
554.79	192.650
555.14	190.350
555.49	186.400
555.85	186.650
556.20	184.650
556.55	183.800
556.90	182.750
557.25	182.500
557.61	180.850
557.96	182.400
558.31	179.000
558.66	177.200
559.01	178.250
559.36	175.100
559.72	178.150
560.07	175.900
560.42	175.050
560.77	176.600
561.12	175.350
561.47	173.650
561.83	174.450
562.18	174.400
562.53	174.650
562.88	173.200
563.23	174.400
563.58	172.950
563.93	172.150
564.28	173.450
564.64	172.550
564.99	172.050
565.34	170.300
565.69	172.500
566.04	169.150
566.39	169.400
566.74	169.400
567.09	168.700
567.44	170.900
567.79	169.100
568.14	169.300
568.50	168.050
568.85	167.650
569.20	166.250
569.55	166.400
569.90	166.750
570.25	167.650
570.60	165.200
570.95	165.800
571.30	163.350
571.65	164.950
572.00	163.950
572.35	163.950
572.70	165.350
573.05	162.900
573.40	164.550
573.75	164.150
574.10	163.200
574.45	163.650
574.80	164.700
575.15	163.400
575.50	165.450
575.85	163.050
576.20	163.000
576.55	162.200
576.90	163.450
577.25	164.250
577.60	162.300
577.95	163.500
578.30	164.050
578.65	161.700
579.00	163.350
579.35	164.200
579.70	162.650
580.05	162.900
580.40	163.450
580.74	163.950
581.09	163.850
581.44	163.550
581.79	162.700
582.14	161.750
582.49	162.350
582.84	161.750
583.19	160.450
583.54	161.600
583.89	160.750
584.24	159.800
584.58	160.600
584.93	160.100
585.28	160.750
585.63	160.800
585.98	159.950
586.33	160.000
586.68	159.800
587.03	159.050
587.37	158.750
587.72	159.100
588.07	158.850
588.42	157.800
588.77	157.100
589.12	159.100
589.46	158.950
589.81	161.300
590.16	158.000
590.51	156.900
590.86	158.750
591.21	158.600
591.55	158.750
591.90	158.500
592.25	158.350
592.60	158.500
592.95	157.050
593.29	158.250
593.64	158.200
593.99	157.000
594.34	157.150
594.68	156.350
595.03	156.750
595.38	157.150
595.73	155.550
596.07	155.700
596.42	156.650
596.77	156.450
597.12	156.250
597.46	156.900
597.81	156.300
598.16	156.600
598.51	158.950
598.85	156.800
599.20	154.600
599.55	154.500
599.90	155.100
600.24	156.000
600.59	155.250
600.94	155.600
601.28	156.600
601.63	156.700
601.98	154.400
602.32	156.300
602.67	155.950
603.02	156.200
603.36	156.500
603.71	155.150
604.06	156.600
604.40	156.100
604.75	157.500
605.10	156.200
605.44	157.400
605.79	157.100
606.14	155.850
606.48	157.350
606.83	156.750
607.17	155.550
607.52	157.050
607.87	158.000
608.21	161.050
608.56	162.450
608.90	168.500
609.25	173.500
609.60	174.800
609.94	171.700
610.29	170.100
610.63	166.050
610.98	164.350
611.33	163.800
611.67	163.300
612.02	162.700
612.36	161.750
612.71	161.200
613.05	161.550
613.40	162.300
613.74	160.900
614.09	160.050
614.44	159.250
614.78	157.700
615.13	157.100
615.47	157.300
615.82	157.800
616.16	157.250
616.51	159.850
616.85	158.700
617.20	158.350
617.54	160.750
617.89	159.450
618.23	157.900
618.58	158.750
618.92	157.850
619.27	157.700
619.61	157.500
619.96	157.850
620.30	159.500
620.64	159.250
620.99	161.600
621.33	162.000
621.68	161.250
622.02	161.000
622.37	160.500
622.71	160.500
623.06	158.750
623.40	158.100
623.74	159.650
624.09	159.800
624.43	161.050
624.78	159.950
625.12	161.650
625.46	164.400
625.81	165.200
626.15	165.400
626.50	163.950
626.84	163.350
627.18	163.750
627.53	161.600
627.87	160.350
628.21	162.400
628.56	165.050
628.90	165.550
629.25	168.450
629.59	171.850
629.93	172.850
630.28	174.700
630.62	174.100
630.96	172.850
631.31	172.000
631.65	170.850
631.99	170.050
632.34	170.350
632.68	173.450
633.02	174.950
633.36	179.200
633.71	185.300
634.05	190.400
634.39	194.850
634.74	197.700
635.08	197.650
635.42	195.600
635.76	195.650
636.11	192.250
636.45	192.700
636.79	191.350
637.14	193.350
637.48	200.900
637.82	207.450
638.16	218.800
638.50	228.250
638.85	236.450
639.19	242.600
639.53	239.850
639.87	235.950
640.22	228.650
640.56	221.900
640.90	217.750
641.24	214.300
641.58	214.650
641.93	218.600
642.27	226.800
642.61	233.800
642.95	240.850
643.29	244.750
643.64	247.250
643.98	242.400
644.32	232.600
644.66	221.400
645.00	211.750
645.34	205.500
645.68	198.850
646.03	196.550
646.37	194.450
646.71	193.800
647.05	198.950
647.39	198.050
647.73	199.150
648.07	197.850
648.42	193.950
648.76	187.050
649.10	182.050
649.44	178.750
649.78	172.250
650.12	169.750
650.46	166.900
650.80	165.850
651.14	167.050
651.48	165.000
651.82	165.200
652.16	165.600
652.51	162.100
652.85	159.200
653.19	159.250
653.53	157.050
653.87	154.650
654.21	154.050
654.55	154.000
654.89	152.650
655.23	152.400
655.57	153.000
655.91	152.600
656.25	152.900
656.59	151.600
656.93	150.600
657.27	150.400
657.61	151.450
657.95	149.200
658.29	147.950
658.63	148.250
658.97	149.850
659.31	149.650
659.65	149.350
659.99	150.450
660.33	150.800
660.67	148.950
661.01	149.100
661.35	149.200
661.68	150.350
662.02	148.400
662.36	147.200
662.70	148.850
663.04	148.650
663.38	148.400
663.72	147.950
664.06	148.850
664.40	147.300
664.74	148.000
665.08	149.200
665.42	148.350
665.75	147.050
666.09	148.050
666.43	149.850
666.77	148.150
667.11	147.300
667.45	148.050
667.79	149.700
668.12	148.000
668.46	146.150
668.80	146.550
669.14	147.800
669.48	148.750
669.82	147.750
670.16	148.300
670.49	147.150
670.83	147.700
671.17	145.700
671.51	147.650
671.85	147.050
672.18	147.350
672.52	146.200
672.86	147.300
673.20	146.300
673.54	147.700
673.87	147.050
674.21	147.700
674.55	146.900
674.89	146.650
675.22	147.250
675.56	146.500
675.90	146.250
676.24	146.100
676.57	145.700
676.91	146.850
677.25	146.100
677.59	145.950
677.92	145.550
678.26	147.000
678.60	146.050
678.93	145.950
679.27	147.000
679.61	146.950
679.95	146.100
680.28	147.150
680.62	146.900
680.96	145.650
681.29	145.750
681.63	145.550
681.97	146.300
682.30	146.250
682.64	145.200
682.98	145.450
683.31	146.300
683.65	147.350
683.99	146.250
684.32	146.500
684.66	146.300
685.00	146.550
685.33	148.000
685.67	147.200
686.00	146.450
686.34	145.050
686.68	147.200
687.01	145.700
687.35	146.200
687.68	146.600
688.02	145.000
688.36	146.450
688.69	145.150
689.03	145.400
689.36	146.450
689.70	145.900
690.03	146.950
690.37	146.450
690.71	146.900
691.04	146.300
691.38	146.050
691.71	146.250
692.05	145.500
692.38	146.900
692.72	145.850
693.05	145.850
693.39	145.950
693.72	146.650
694.06	144.900
694.39	144.900
694.73	146.000
695.06	144.950
695.40	145.050
695.73	145.600
696.07	146.500
696.40	145.850
696.74	146.150
697.07	146.400
697.41	144.850
697.74	146.250
698.08	145.650
698.41	146.350
698.74	146.450
699.08	145.350
699.41	146.650
699.75	145.550
700.08	143.300
700.42	145.100
700.75	144.600
701.08	144.500
701.42	144.950
701.75	145.800
702.09	146.600
702.42	148.300
702.75	146.300
703.09	145.050
703.42	145.450
703.75	145.250
704.09	144.600
704.42	146.450
704.76	146.550
705.09	146.800
705.42	146.400
705.76	146.200
706.09	144.650
706.42	147.550
706.76	145.950
707.09	146.300
707.42	145.800
707.76	145.650
708.09	145.600
708.42	146.950
708.75	146.650
709.09	144.700
709.42	145.800
709.75	145.700
710.09	146.600
710.42	146.950
710.75	146.150
711.08	145.700
711.42	146.100
711.75	146.500
712.08	145.650
712.41	145.500
712.75	145.200
713.08	144.600
713.41	145.050
713.74	145.750
714.08	145.850
714.41	146.100
714.74	145.800
715.07	146.300
715.41	144.200
715.74	146.450
716.07	145.700
716.40	145.900
716.73	145.400
717.06	144.450
717.40	144.400
717.73	144.350
718.06	146.600
718.39	146.200
718.72	146.300
719.05	145.400
719.39	144.950
719.72	145.400
720.05	146.100
720.38	145.500
720.71	145.200
721.04	145.300
721.37	144.800
721.71	144.500
722.04	144.950
722.37	145.500
722.70	145.800
723.03	145.550
723.36	144.200
723.69	144.750
724.02	145.550
724.35	144.850
724.68	145.550
725.01	144.950
725.35	144.550
725.68	145.350
726.01	146.100
726.34	146.400
726.67	145.200
727.00	144.400
727.33	145.100
727.66	145.000
727.99	145.150
728.32	143.950
728.65	144.700
728.98	144.650
729.31	146.400
729.64	144.650
729.97	143.700
730.30	144.850
730.63	145.350
730.96	144.500
731.29	144.250
731.62	145.450
731.95	146.950
732.28	146.650
732.61	146.100
732.94	146.850
733.27	145.200
733.60	145.050
733.93	145.000
734.25	144.400
734.58	145.350
734.91	145.350
735.24	144.350
735.57	144.700
735.90	144.450
736.23	146.050
736.56	145.000
736.89	145.000
737.22	145.850
737.55	146.050
737.87	146.800
738.20	145.550
738.53	143.900
738.86	145.550
739.19	143.850
739.52	144.900
739.85	145.250
740.17	145.850
740.50	145.200
740.83	145.550
741.16	144.350
741.49	145.800
741.82	145.300
742.14	144.800
742.47	144.400
742.80	144.850
743.13	145.800
743.46	144.900
743.78	145.700
744.11	145.300
744.44	144.800
744.77	146.650
745.10	144.300
745.42	144.500
745.75	145.650
746.08	145.100
746.41	145.250
746.73	145.050
747.06	145.950
747.39	144.700
747.72	144.350
748.04	145.350
748.37	144.700
748.70	144.450
749.02	145.700
749.35	145.850
749.68	143.650
750.01	146.050
750.33	146.400
750.66	144.950
750.99	146.150
751.31	145.200
751.64	143.950
751.97	144.500
752.29	147.150
752.62	144.600
752.95	144.950
753.27	145.400
753.60	145.850
753.93	145.450
754.25	145.400
754.58	145.950
754.91	144.400
755.23	146.350
755.56	148.200
755.88	145.350
756.21	144.950
756.54	145.300
756.86	143.950
757.19	144.850
757.51	144.550
757.84	144.950
758.17	144.550
758.49	144.950
758.82	145.000
759.14	144.900
759.47	145.950
759.79	145.250
760.12	144.950
760.44	144.100
760.77	144.600
761.09	144.100
761.42	145.650
761.75	145.700
762.07	144.400
762.40	144.700
762.72	144.600
763.05	146.450
763.37	145.150
763.70	144.000
764.02	147.150
764.35	144.500
764.67	144.950
764.99	145.500
765.32	144.900
765.64	145.350
765.97	143.950
766.29	145.850
766.62	144.150
766.94	145.700
767.27	145.200
767.59	144.000
767.91	143.850
768.24	145.700
768.56	144.950
768.89	146.700
769.21	146.750
769.54	148.750
769.86	151.000
770.18	148.600
770.51	146.350
770.83	146.050
771.15	145.650
771.48	144.700
771.80	144.600
772.13	145.100
772.45	146.050
772.77	145.650
773.10	144.750
773.42	145.800
773.74	144.800
774.07	143.900
774.39	144.800
774.71	143.450
775.04	146.000
775.36	143.950
775.68	145.050
776.01	144.150
776.33	144.200
776.65	144.900
776.97	144.500
777.30	147.100
777.62	145.150
777.94	146.000
778.26	144.950
778.59	143.800
778.91	143.850
779.23	145.500
779.55	145.900
779.88	146.200
780.20	145.300
780.52	143.950
780.84	144.150
781.17	144.300
781.49	145.150
781.81	144.950
782.13	144.200
782.45	145.600
782.78	145.350
783.10	144.550
783.42	145.050
783.74	145.100
784.06	144.250
784.39	144.400
784.71	144.850
785.03	144.750
785.35	145.850
785.67	145.300
785.99	143.250
786.31	144.450
786.64	144.400
786.96	144.050
787.28	145.350
787.60	144.450
787.92	145.450
788.24	144.750
788.56	144.150
788.88	144.500
789.20	145.800
789.53	144.250
789.85	145.050
790.17	145.700
790.49	145.150
790.81	144.950
791.13	144.450
791.45	146.150
