OOIBase32 Version 2.0.6.5 Data File
++++++++++++++++++++++++++++++++++++
Date: 03-26-2021, 17:57:12
User: Valued Ocean Optics Customer
Spectrometer Serial Number: USB2E5007
Spectrometer Channel: Master
Integration Time (msec): 45
Spectra Averaged: 20
Boxcar Smoothing: 0
Correct for Electrical Dark: Disabled
Time Normalized: Disabled
Dual-beam Reference: Disabled
Reference Channel: Master
Temperature: Not acquired
Spectrometer Type: S2000
ADC Type: USB2000
Number of Pixels in File: 2048
Graph Title: 
>>>>>Begin Spectral Data<<<<<
340.15	0.000
340.52	161.250
340.90	162.800
341.27	164.650
341.64	165.950
342.01	168.800
342.38	169.400
342.76	169.500
343.13	172.200
343.50	171.400
343.87	171.050
344.24	172.400
344.61	172.500
344.98	172.400
345.36	171.550
345.73	173.650
346.10	171.100
346.47	173.100
346.84	171.800
347.21	171.750
347.58	171.300
347.96	173.900
348.33	170.650
348.70	170.350
349.07	173.900
349.44	172.900
349.81	176.500
350.18	174.550
350.55	173.400
350.92	175.250
351.30	174.400
351.67	174.450
352.04	174.850
352.41	174.200
352.78	176.200
353.15	175.850
353.52	174.400
353.89	178.100
354.26	174.200
354.63	174.450
355.00	176.050
355.37	174.500
355.75	175.750
356.12	174.350
356.49	176.850
356.86	175.750
357.23	176.100
357.60	175.300
357.97	174.650
358.34	176.800
358.71	177.800
359.08	175.900
359.45	174.850
359.82	177.550
360.19	176.900
360.56	175.000
360.93	176.750
361.30	175.950
361.67	176.750
362.04	177.850
362.41	177.650
362.78	176.650
363.15	178.700
363.52	177.050
363.89	178.100
364.26	176.950
364.63	175.450
365.00	176.350
365.37	177.550
365.74	177.500
366.11	177.100
366.48	178.350
366.85	178.150
367.22	177.000
367.59	179.000
367.96	176.450
368.33	177.800
368.70	177.800
369.07	178.650
369.44	178.700
369.81	177.950
370.18	178.350
370.55	177.100
370.92	177.500
371.29	179.200
371.66	178.450
372.03	180.350
372.40	178.200
372.77	178.850
373.13	177.700
373.50	178.550
373.87	177.900
374.24	179.150
374.61	180.050
374.98	178.850
375.35	179.850
375.72	179.650
376.09	179.700
376.46	179.400
376.83	178.700
377.20	179.200
377.56	180.350
377.93	178.500
378.30	179.700
378.67	179.100
379.04	181.400
379.41	180.600
379.78	179.100
380.15	182.500
380.51	179.100
380.88	179.400
381.25	178.950
381.62	180.050
381.99	179.500
382.36	180.200
382.73	179.400
383.09	181.300
383.46	179.900
383.83	180.950
384.20	180.650
384.57	180.300
384.94	180.650
385.31	179.250
385.67	181.500
386.04	179.550
386.41	181.000
386.78	180.100
387.15	180.100
387.51	180.650
387.88	181.300
388.25	181.600
388.62	180.350
388.99	180.950
389.36	181.650
389.72	181.100
390.09	187.900
390.46	180.950
390.83	182.200
391.19	180.200
391.56	181.750
391.93	181.950
392.30	181.900
392.67	181.350
393.03	180.700
393.40	181.250
393.77	181.800
394.14	182.500
394.50	182.000
394.87	182.050
395.24	182.050
395.61	181.900
395.97	181.900
396.34	181.450
396.71	180.650
397.08	182.550
397.44	182.350
397.81	183.750
398.18	181.800
398.55	181.900
398.91	182.950
399.28	182.400
399.65	182.500
400.01	183.550
400.38	182.650
400.75	183.050
401.12	182.500
401.48	183.600
401.85	183.300
402.22	182.900
402.58	183.850
402.95	185.750
403.32	183.900
403.68	182.600
404.05	182.700
404.42	183.300
404.78	183.850
405.15	185.050
405.52	184.650
405.88	185.050
406.25	184.200
406.62	184.050
406.98	183.700
407.35	183.350
407.72	184.100
408.08	185.300
408.45	185.400
408.82	183.950
409.18	183.500
409.55	184.050
409.91	183.150
410.28	183.450
410.65	184.100
411.01	185.100
411.38	182.950
411.75	184.250
412.11	184.850
412.48	185.250
412.84	186.150
413.21	184.400
413.58	185.050
413.94	184.750
414.31	185.500
414.67	184.800
415.04	185.450
415.41	186.150
415.77	185.150
416.14	185.950
416.50	184.750
416.87	185.950
417.23	185.250
417.60	186.350
417.97	185.050
418.33	187.000
418.70	184.700
419.06	187.700
419.43	186.350
419.79	183.800
420.16	184.700
420.52	185.350
420.89	184.450
421.25	187.200
421.62	186.250
421.98	184.500
422.35	185.400
422.72	186.350
423.08	186.150
423.45	187.400
423.81	184.650
424.18	185.150
424.54	185.150
424.91	185.050
425.27	186.650
425.64	186.300
426.00	185.850
426.37	187.750
426.73	187.300
427.09	187.900
427.46	187.000
427.82	188.750
428.19	186.300
428.55	187.650
428.92	188.150
429.28	187.450
429.65	186.600
430.01	189.250
430.38	188.500
430.74	187.350
431.11	187.000
431.47	188.650
431.83	188.250
432.20	187.700
432.56	188.300
432.93	186.900
433.29	189.250
433.66	192.600
434.02	192.450
434.38	193.650
434.75	188.300
435.11	187.650
435.48	185.250
435.84	187.150
436.20	186.750
436.57	187.500
436.93	188.750
437.30	187.350
437.66	187.650
438.02	187.750
438.39	187.050
438.75	188.500
439.12	189.700
439.48	188.150
439.84	189.450
440.21	187.100
440.57	186.400
440.93	187.800
441.30	187.700
441.66	188.600
442.02	187.700
442.39	187.200
442.75	187.500
443.11	187.100
443.48	188.400
443.84	188.850
444.20	186.400
444.57	187.850
444.93	188.150
445.29	189.150
445.66	188.800
446.02	188.900
446.38	188.550
446.75	188.800
447.11	187.500
447.47	188.800
447.84	187.000
448.20	190.250
448.56	188.200
448.92	187.000
449.29	190.800
449.65	187.450
450.01	189.500
450.37	188.950
450.74	186.800
451.10	188.050
451.46	187.600
451.83	188.050
452.19	192.150
452.55	187.250
452.91	187.400
453.28	188.350
453.64	188.550
454.00	190.350
454.36	188.250
454.72	188.300
455.09	188.900
455.45	189.400
455.81	189.300
456.17	188.400
456.54	189.700
456.90	187.700
457.26	191.200
457.62	188.650
457.98	188.000
458.35	188.100
458.71	188.850
459.07	188.200
459.43	191.500
459.79	188.200
460.16	188.550
460.52	187.900
460.88	188.250
461.24	189.900
461.60	189.550
461.96	189.400
462.33	190.100
462.69	189.350
463.05	189.300
463.41	189.100
463.77	190.200
464.13	189.150
464.49	190.750
464.86	187.950
465.22	190.500
465.58	190.400
465.94	190.000
466.30	191.600
466.66	191.150
467.02	190.700
467.38	188.500
467.75	190.600
468.11	192.250
468.47	191.100
468.83	191.100
469.19	191.150
469.55	190.000
469.91	191.850
470.27	191.500
470.63	189.700
470.99	191.350
471.35	191.800
471.72	190.950
472.08	191.100
472.44	190.800
472.80	191.450
473.16	192.000
473.52	193.200
473.88	193.200
474.24	193.650
474.60	192.300
474.96	190.950
475.32	193.400
475.68	191.500
476.04	194.100
476.40	194.950
476.76	193.650
477.12	193.950
477.48	195.000
477.84	194.950
478.20	194.100
478.56	195.050
478.92	194.300
479.28	194.100
479.64	196.650
480.00	195.150
480.36	195.900
480.72	195.400
481.08	197.350
481.44	198.300
481.80	196.200
482.16	195.850
482.52	197.750
482.88	198.350
483.24	197.250
483.60	198.150
483.96	198.000
484.32	200.100
484.68	199.250
485.04	200.550
485.40	201.550
485.76	201.200
486.12	200.900
486.48	201.800
486.83	202.100
487.19	202.100
487.55	202.050
487.91	203.400
488.27	201.100
488.63	204.950
488.99	202.400
489.35	205.550
489.71	204.050
490.07	203.300
490.43	204.200
490.78	204.600
491.14	207.500
491.50	206.950
491.86	207.850
492.22	205.900
492.58	206.850
492.94	207.000
493.30	209.150
493.65	209.200
494.01	211.050
494.37	213.000
494.73	209.650
495.09	211.550
495.45	212.350
495.80	215.900
496.16	215.750
496.52	214.150
496.88	214.550
497.24	216.850
497.60	217.400
497.95	215.950
498.31	219.500
498.67	217.600
499.03	219.700
499.39	220.700
499.74	222.850
500.10	222.550
500.46	224.350
500.82	225.600
501.18	228.050
501.53	228.300
501.89	230.150
502.25	233.700
502.61	233.700
502.96	237.100
503.32	236.850
503.68	242.650
504.04	242.800
504.40	243.700
504.75	249.050
505.11	250.950
505.47	255.200
505.82	258.100
506.18	258.500
506.54	262.950
506.90	268.050
507.25	272.150
507.61	282.750
507.97	289.300
508.33	300.250
508.68	314.800
509.04	330.500
509.40	337.400
509.75	339.200
510.11	341.900
510.47	349.700
510.82	350.900
511.18	359.900
511.54	360.650
511.89	368.700
512.25	368.050
512.61	375.900
512.96	367.050
513.32	376.000
513.68	381.950
514.03	384.800
514.39	396.400
514.75	415.200
515.10	434.900
515.46	447.050
515.82	453.850
516.17	452.550
516.53	452.400
516.89	457.750
517.24	479.700
517.60	490.300
517.95	493.000
518.31	507.000
518.67	519.050
519.02	526.600
519.38	536.500
519.73	552.350
520.09	567.550
520.45	609.200
520.80	680.150
521.16	706.300
521.51	747.950
521.87	817.450
522.22	857.700
522.58	965.050
522.94	1107.750
523.29	1365.750
523.65	1967.550
524.00	2398.600
524.36	2656.200
524.71	2444.350
525.07	2214.050
525.42	2361.600
525.78	2463.950
526.14	2444.000
526.49	2650.750
526.85	2803.450
527.20	2917.750
527.56	3285.300
527.91	3453.350
528.27	3863.150
528.62	4060.100
528.98	4062.550
529.33	4062.250
529.69	4061.750
530.04	4061.650
530.40	4061.900
530.75	4061.850
531.11	4060.750
531.46	4055.950
531.81	4053.600
532.17	4055.600
532.52	4040.150
532.88	3012.050
533.23	2589.000
533.59	2498.450
533.94	2330.850
534.30	2180.650
534.65	1930.050
535.01	1841.500
535.36	1757.100
535.71	1569.000
536.07	1318.850
536.42	1130.400
536.78	975.200
537.13	911.900
537.48	880.400
537.84	793.250
538.19	737.200
538.55	680.200
538.90	650.300
539.25	626.800
539.61	585.000
539.96	510.200
540.32	472.700
540.67	436.100
541.02	422.100
541.38	404.850
541.73	391.950
542.08	374.350
542.44	359.750
542.79	348.500
543.15	340.800
543.50	326.200
543.85	315.650
544.21	313.000
544.56	299.300
544.91	288.700
545.27	274.650
545.62	267.200
545.97	264.400
546.32	260.300
546.68	249.700
547.03	246.300
547.38	242.450
547.74	241.200
548.09	240.250
548.44	230.500
548.80	226.200
549.15	222.700
549.50	218.700
549.85	218.200
550.21	214.000
550.56	211.300
550.91	211.550
551.26	207.350
551.62	208.800
551.97	205.900
552.32	203.950
552.67	200.600
553.03	199.500
553.38	196.800
553.73	196.050
554.08	193.600
554.44	191.000
554.79	191.350
555.14	190.450
555.49	187.800
555.85	187.700
556.20	185.200
556.55	184.450
556.90	184.600
557.25	181.350
557.61	180.100
557.96	181.450
558.31	178.600
558.66	178.100
559.01	178.650
559.36	177.350
559.72	176.250
560.07	176.100
560.42	176.500
560.77	176.250
561.12	175.200
561.47	176.100
561.83	174.000
562.18	174.650
562.53	174.200
562.88	172.300
563.23	174.750
563.58	173.700
563.93	172.000
564.28	173.300
564.64	171.450
564.99	170.150
565.34	170.250
565.69	173.100
566.04	169.700
566.39	168.650
566.74	170.400
567.09	169.300
567.44	169.600
567.79	169.300
568.14	168.300
568.50	168.150
568.85	167.600
569.20	166.150
569.55	167.550
569.90	167.100
570.25	165.700
570.60	165.000
570.95	165.650
571.30	163.800
571.65	164.850
572.00	162.400
572.35	164.900
572.70	164.300
573.05	163.400
573.40	163.100
573.75	162.650
574.10	163.300
574.45	163.250
574.80	164.000
575.15	164.400
575.50	162.700
575.85	163.050
576.20	162.300
576.55	161.650
576.90	163.150
577.25	163.100
577.60	162.750
577.95	164.300
578.30	164.200
578.65	163.000
579.00	161.550
579.35	163.600
579.70	161.300
580.05	161.000
580.40	162.500
580.74	163.350
581.09	163.250
581.44	161.800
581.79	162.550
582.14	161.850
582.49	162.650
582.84	161.550
583.19	159.150
583.54	161.450
583.89	161.900
584.24	160.100
584.58	160.550
584.93	160.400
585.28	160.900
585.63	160.450
585.98	161.500
586.33	160.450
586.68	159.400
587.03	161.200
587.37	158.950
587.72	157.600
588.07	157.850
588.42	159.350
588.77	159.150
589.12	159.250
589.46	157.600
589.81	158.500
590.16	157.550
590.51	159.200
590.86	159.700
591.21	159.700
591.55	159.300
591.90	158.100
592.25	157.600
592.60	157.150
592.95	156.750
593.29	157.100
593.64	156.400
593.99	157.200
594.34	157.100
594.68	157.450
595.03	156.650
595.38	157.250
595.73	154.600
596.07	155.600
596.42	155.500
596.77	156.350
597.12	156.950
597.46	154.950
597.81	155.250
598.16	155.200
598.51	156.650
598.85	155.850
599.20	154.600
599.55	154.900
599.90	155.350
600.24	154.900
600.59	154.800
600.94	153.800
601.28	154.050
601.63	154.500
601.98	156.150
602.32	155.050
602.67	155.650
603.02	156.400
603.36	154.600
603.71	155.200
604.06	156.250
604.40	154.800
604.75	155.150
605.10	154.800
605.44	156.850
605.79	155.650
606.14	155.500
606.48	154.950
606.83	154.450
607.17	156.700
607.52	156.400
607.87	157.350
608.21	158.200
608.56	159.950
608.90	167.750
609.25	170.250
609.60	171.800
609.94	170.250
610.29	167.650
610.63	164.100
610.98	163.600
611.33	162.550
611.67	161.550
612.02	160.200
612.36	159.600
612.71	158.550
613.05	158.900
613.40	157.700
613.74	158.700
614.09	157.500
614.44	156.350
614.78	156.350
615.13	157.550
615.47	155.600
615.82	155.900
616.16	155.300
616.51	154.700
616.85	155.050
617.20	154.600
617.54	157.400
617.89	155.850
618.23	156.800
618.58	156.350
618.92	156.550
619.27	155.350
619.61	156.900
619.96	155.500
620.30	156.400
620.64	155.650
620.99	155.700
621.33	156.400
621.68	157.700
622.02	157.350
622.37	155.750
622.71	156.500
623.06	156.500
623.40	156.150
623.74	156.250
624.09	156.400
624.43	156.250
624.78	154.450
625.12	153.850
625.46	156.550
625.81	156.250
626.15	157.100
626.50	157.500
626.84	155.600
627.18	157.500
627.53	158.150
627.87	156.500
628.21	157.450
628.56	157.100
628.90	155.050
629.25	155.350
629.59	156.850
629.93	157.350
630.28	158.400
630.62	159.800
630.96	160.150
631.31	160.600
631.65	159.700
631.99	160.250
632.34	159.000
632.68	159.050
633.02	157.700
633.36	158.550
633.71	158.400
634.05	160.100
634.39	161.350
634.74	163.100
635.08	165.450
635.42	167.000
635.76	168.300
636.11	168.150
636.45	171.250
636.79	167.800
637.14	166.150
637.48	166.100
637.82	165.800
638.16	167.350
638.50	169.650
638.85	173.300
639.19	178.950
639.53	184.400
639.87	185.250
640.22	187.950
640.56	188.700
640.90	186.950
641.24	184.650
641.58	183.500
641.93	181.050
642.27	182.550
642.61	183.400
642.95	185.400
643.29	189.900
643.64	194.600
643.98	203.050
644.32	206.200
644.66	206.500
645.00	206.850
645.34	207.250
645.68	201.200
646.03	198.150
646.37	191.600
646.71	188.600
647.05	189.100
647.39	187.700
647.73	190.200
648.07	192.700
648.42	194.700
648.76	195.800
649.10	196.950
649.44	195.150
649.78	188.800
650.12	186.100
650.46	179.450
650.80	174.100
651.14	172.500
651.48	168.300
651.82	167.300
652.16	168.300
652.51	166.700
652.85	164.400
653.19	165.600
653.53	165.250
653.87	162.600
654.21	161.500
654.55	158.450
654.89	157.250
655.23	155.700
655.57	154.250
655.91	153.600
656.25	154.200
656.59	150.050
656.93	150.700
657.27	151.450
657.61	151.150
657.95	150.150
658.29	150.150
658.63	150.350
658.97	149.800
659.31	150.100
659.65	148.450
659.99	150.450
660.33	149.500
660.67	148.650
661.01	148.100
661.35	148.800
661.68	149.050
662.02	147.250
662.36	147.750
662.70	148.750
663.04	148.550
663.38	149.250
663.72	149.450
664.06	149.400
664.40	146.800
664.74	148.950
665.08	149.250
665.42	147.450
665.75	147.450
666.09	148.250
666.43	149.800
666.77	148.700
667.11	147.100
667.45	146.950
667.79	147.650
668.12	146.650
668.46	147.400
668.80	147.200
669.14	147.900
669.48	148.050
669.82	147.900
670.16	148.350
670.49	146.400
670.83	147.000
671.17	146.700
671.51	147.300
671.85	145.850
672.18	146.150
672.52	145.950
672.86	146.750
673.20	146.050
673.54	147.000
673.87	146.500
674.21	147.250
674.55	146.200
674.89	146.250
675.22	146.650
675.56	147.300
675.90	147.550
676.24	147.350
676.57	146.000
676.91	146.700
677.25	145.500
677.59	146.750
677.92	145.850
678.26	146.250
678.60	145.650
678.93	146.800
679.27	146.050
679.61	146.050
679.95	146.500
680.28	146.500
680.62	146.100
680.96	146.000
681.29	147.700
681.63	146.500
681.97	145.700
682.30	145.900
682.64	145.850
682.98	145.100
683.31	146.900
683.65	145.700
683.99	145.150
684.32	145.550
684.66	145.800
685.00	147.750
685.33	147.000
685.67	145.300
686.00	145.250
686.34	146.400
686.68	148.950
687.01	145.800
687.35	144.650
687.68	147.200
688.02	145.350
688.36	146.350
688.69	145.750
689.03	145.650
689.36	145.300
689.70	144.500
690.03	145.850
690.37	145.600
690.71	145.050
691.04	145.000
691.38	146.000
691.71	146.450
692.05	144.450
692.38	146.350
692.72	145.950
693.05	146.300
693.39	146.300
693.72	146.350
694.06	144.450
694.39	144.150
694.73	144.400
695.06	144.200
695.40	145.400
695.73	145.200
696.07	145.750
696.40	145.650
696.74	147.250
697.07	146.100
697.41	144.600
697.74	146.150
698.08	145.150
698.41	145.300
698.74	147.000
699.08	145.700
699.41	146.050
699.75	145.800
700.08	144.450
700.42	144.900
700.75	145.150
701.08	145.250
701.42	144.500
701.75	146.250
702.09	146.450
702.42	148.250
702.75	144.950
703.09	144.700
703.42	144.000
703.75	144.700
704.09	145.250
704.42	145.250
704.76	145.550
705.09	146.550
705.42	144.650
705.76	147.150
706.09	144.800
706.42	147.650
706.76	145.650
707.09	146.100
707.42	146.300
707.76	146.450
708.09	145.200
708.42	145.750
708.75	146.800
709.09	145.250
709.42	145.200
709.75	145.250
710.09	146.600
710.42	145.500
710.75	145.150
711.08	146.150
711.42	145.900
711.75	146.350
712.08	146.200
712.41	144.300
712.75	145.850
713.08	145.000
713.41	145.350
713.74	145.700
714.08	145.600
714.41	144.650
714.74	144.700
715.07	145.800
715.41	145.900
715.74	146.000
716.07	144.450
716.40	144.950
716.73	145.300
717.06	144.250
717.40	144.100
717.73	143.550
718.06	145.450
718.39	145.450
718.72	145.550
719.05	144.900
719.39	145.050
719.72	144.650
720.05	146.000
720.38	144.200
720.71	144.650
721.04	145.600
721.37	146.050
721.71	144.400
722.04	144.150
722.37	145.800
722.70	145.100
723.03	146.200
723.36	145.400
723.69	144.500
724.02	144.250
724.35	143.800
724.68	145.500
725.01	144.450
725.35	144.650
725.68	146.300
726.01	144.050
726.34	146.000
726.67	144.700
727.00	144.150
727.33	144.600
727.66	145.400
727.99	145.400
728.32	144.250
728.65	145.750
728.98	145.500
729.31	144.950
729.64	144.550
729.97	143.000
730.30	145.000
730.63	144.850
730.96	144.100
731.29	144.500
731.62	144.000
731.95	145.200
732.28	147.500
732.61	144.950
732.94	145.200
733.27	145.950
733.60	145.750
733.93	144.550
734.25	145.250
734.58	145.300
734.91	144.900
735.24	144.100
735.57	145.500
735.90	144.350
736.23	145.750
736.56	145.250
736.89	144.050
737.22	145.650
737.55	145.450
737.87	146.950
738.20	145.550
738.53	144.000
738.86	144.000
739.19	144.050
739.52	145.800
739.85	144.650
740.17	144.950
740.50	144.500
740.83	144.550
741.16	144.650
741.49	146.050
741.82	144.250
742.14	144.100
742.47	144.900
742.80	144.900
743.13	144.400
743.46	145.350
743.78	144.500
744.11	144.600
744.44	145.000
744.77	145.450
745.10	145.700
745.42	145.400
745.75	145.100
746.08	144.650
746.41	145.000
746.73	144.850
747.06	145.050
747.39	143.550
747.72	144.700
748.04	145.300
748.37	144.250
748.70	144.500
749.02	144.500
749.35	144.650
749.68	144.650
750.01	145.550
750.33	147.200
750.66	145.700
750.99	145.750
751.31	143.650
751.64	144.200
751.97	143.300
752.29	145.700
752.62	144.700
752.95	145.000
753.27	144.450
753.60	144.400
753.93	145.350
754.25	145.600
754.58	145.000
754.91	144.000
755.23	145.800
755.56	148.250
755.88	145.300
756.21	143.950
756.54	145.400
756.86	144.850
757.19	143.850
757.51	145.100
757.84	144.900
758.17	144.900
758.49	143.600
758.82	143.550
759.14	144.700
759.47	145.650
759.79	145.300
760.12	144.450
760.44	144.350
760.77	144.750
761.09	144.100
761.42	145.600
761.75	145.600
762.07	145.050
762.40	144.150
762.72	145.300
763.05	144.450
763.37	145.000
763.70	144.150
764.02	144.450
764.35	144.350
764.67	143.650
764.99	144.550
765.32	143.800
765.64	145.100
765.97	144.450
766.29	144.650
766.62	143.600
766.94	144.700
767.27	145.450
767.59	144.700
767.91	144.700
768.24	145.800
768.56	143.800
768.89	144.900
769.21	147.100
769.54	149.050
769.86	149.800
770.18	148.600
770.51	145.800
770.83	144.600
771.15	145.350
771.48	143.400
771.80	144.500
772.13	144.650
772.45	145.450
772.77	145.800
773.10	144.200
773.42	144.500
773.74	143.850
774.07	144.000
774.39	144.250
774.71	142.600
775.04	144.050
775.36	144.450
775.68	144.450
776.01	142.900
776.33	142.200
776.65	144.200
776.97	143.700
777.30	145.100
777.62	144.900
777.94	144.500
778.26	144.200
778.59	144.150
778.91	143.650
779.23	145.150
779.55	145.450
779.88	145.100
780.20	143.650
780.52	143.250
780.84	144.000
781.17	144.800
781.49	144.600
781.81	144.350
782.13	144.550
782.45	145.750
782.78	144.350
783.10	145.100
783.42	145.500
783.74	143.750
784.06	144.650
784.39	143.150
784.71	144.600
785.03	145.650
785.35	146.550
785.67	143.450
785.99	144.800
786.31	144.300
786.64	144.850
786.96	145.050
787.28	145.650
787.60	145.050
787.92	144.350
788.24	144.900
788.56	144.500
788.88	144.550
789.20	149.000
789.53	144.450
789.85	145.250
790.17	144.350
790.49	143.200
790.81	142.950
791.13	143.700
791.45	145.600
