OOIBase32 Version 2.0.6.5 Data File
++++++++++++++++++++++++++++++++++++
Date: 03-26-2021, 17:39:01
User: Valued Ocean Optics Customer
Spectrometer Serial Number: USB2E5007
Spectrometer Channel: Master
Integration Time (msec): 45
Spectra Averaged: 20
Boxcar Smoothing: 0
Correct for Electrical Dark: Disabled
Time Normalized: Disabled
Dual-beam Reference: Disabled
Reference Channel: Master
Temperature: Not acquired
Spectrometer Type: S2000
ADC Type: USB2000
Number of Pixels in File: 2048
Graph Title: 
>>>>>Begin Spectral Data<<<<<
340.15	0.000
340.52	159.000
340.90	159.700
341.27	161.600
341.64	163.300
342.01	166.550
342.38	166.150
342.76	167.200
343.13	168.500
343.50	168.350
343.87	169.800
344.24	169.550
344.61	169.900
344.98	168.650
345.36	170.500
345.73	170.450
346.10	166.800
346.47	171.100
346.84	167.750
347.21	168.900
347.58	169.150
347.96	171.150
348.33	167.850
348.70	168.500
349.07	169.250
349.44	168.200
349.81	173.100
350.18	170.550
350.55	170.700
350.92	170.950
351.30	169.350
351.67	169.900
352.04	170.350
352.41	171.100
352.78	171.850
353.15	171.050
353.52	171.400
353.89	172.850
354.26	172.250
354.63	172.250
355.00	173.250
355.37	171.800
355.75	171.650
356.12	170.600
356.49	172.700
356.86	171.000
357.23	171.650
357.60	171.700
357.97	172.250
358.34	171.150
358.71	174.300
359.08	172.550
359.45	172.200
359.82	172.200
360.19	173.500
360.56	172.400
360.93	172.000
361.30	172.300
361.67	171.900
362.04	173.300
362.41	172.100
362.78	172.000
363.15	175.350
363.52	174.200
363.89	174.200
364.26	172.500
364.63	173.500
365.00	172.400
365.37	174.350
365.74	172.900
366.11	173.900
366.48	174.100
366.85	172.350
367.22	173.450
367.59	175.650
367.96	172.800
368.33	173.700
368.70	173.450
369.07	173.750
369.44	173.850
369.81	175.750
370.18	174.950
370.55	172.750
370.92	175.850
371.29	174.550
371.66	176.500
372.03	174.100
372.40	174.000
372.77	175.850
373.13	174.500
373.50	175.000
373.87	173.400
374.24	175.400
374.61	174.750
374.98	175.600
375.35	176.100
375.72	174.100
376.09	175.700
376.46	174.350
376.83	175.100
377.20	175.500
377.56	175.250
377.93	174.650
378.30	175.900
378.67	175.000
379.04	175.700
379.41	174.050
379.78	176.150
380.15	178.700
380.51	175.850
380.88	175.700
381.25	176.400
381.62	176.600
381.99	175.500
382.36	176.750
382.73	174.200
383.09	176.350
383.46	176.850
383.83	176.550
384.20	177.400
384.57	176.450
384.94	177.000
385.31	175.550
385.67	176.150
386.04	176.650
386.41	177.200
386.78	176.650
387.15	178.150
387.51	177.750
387.88	176.000
388.25	176.500
388.62	176.400
388.99	177.200
389.36	175.200
389.72	176.700
390.09	182.550
390.46	178.850
390.83	176.600
391.19	177.850
391.56	176.850
391.93	175.850
392.30	177.250
392.67	178.950
393.03	178.800
393.40	177.850
393.77	177.350
394.14	176.350
394.50	177.350
394.87	177.650
395.24	177.650
395.61	178.400
395.97	177.700
396.34	178.450
396.71	177.350
397.08	179.600
397.44	178.700
397.81	178.500
398.18	179.250
398.55	177.700
398.91	178.350
399.28	178.200
399.65	178.400
400.01	179.600
400.38	177.900
400.75	178.200
401.12	177.850
401.48	175.750
401.85	178.600
402.22	178.250
402.58	178.450
402.95	181.250
403.32	180.650
403.68	176.700
404.05	179.000
404.42	179.050
404.78	179.650
405.15	178.900
405.52	179.400
405.88	179.100
406.25	178.150
406.62	178.600
406.98	179.150
407.35	177.950
407.72	179.100
408.08	180.400
408.45	178.950
408.82	178.950
409.18	178.850
409.55	179.950
409.91	180.050
410.28	179.100
410.65	178.300
411.01	178.800
411.38	178.700
411.75	178.200
412.11	179.550
412.48	179.650
412.84	179.900
413.21	178.950
413.58	179.400
413.94	179.950
414.31	179.800
414.67	179.600
415.04	179.950
415.41	180.000
415.77	181.100
416.14	179.650
416.50	180.400
416.87	179.850
417.23	180.050
417.60	180.650
417.97	179.250
418.33	180.900
418.70	181.200
419.06	182.900
419.43	180.300
419.79	178.550
420.16	179.700
420.52	180.950
420.89	181.900
421.25	181.450
421.62	180.450
421.98	179.550
422.35	179.400
422.72	180.300
423.08	180.150
423.45	180.850
423.81	181.050
424.18	181.950
424.54	179.600
424.91	180.300
425.27	182.850
425.64	181.550
426.00	181.250
426.37	182.750
426.73	181.500
427.09	181.750
427.46	181.500
427.82	181.850
428.19	181.400
428.55	181.650
428.92	181.400
429.28	183.250
429.65	180.300
430.01	182.450
430.38	181.300
430.74	181.300
431.11	181.050
431.47	183.000
431.83	183.250
432.20	181.450
432.56	181.400
432.93	181.650
433.29	182.950
433.66	186.800
434.02	190.300
434.38	187.800
434.75	183.750
435.11	182.750
435.48	180.700
435.84	182.400
436.20	181.150
436.57	181.050
436.93	183.350
437.30	182.600
437.66	181.750
438.02	182.300
438.39	182.000
438.75	181.300
439.12	182.600
439.48	183.150
439.84	182.500
440.21	182.250
440.57	181.050
440.93	182.550
441.30	181.700
441.66	182.600
442.02	182.800
442.39	181.300
442.75	182.700
443.11	182.850
443.48	182.300
443.84	180.600
444.20	181.850
444.57	181.150
444.93	181.350
445.29	185.250
445.66	182.450
446.02	182.950
446.38	181.000
446.75	182.850
447.11	183.200
447.47	182.100
447.84	180.550
448.20	183.800
448.56	183.250
448.92	182.500
449.29	183.800
449.65	182.600
450.01	183.550
450.37	183.100
450.74	182.150
451.10	182.400
451.46	181.850
451.83	181.850
452.19	185.050
452.55	182.700
452.91	182.800
453.28	182.350
453.64	182.400
454.00	184.100
454.36	180.200
454.72	181.900
455.09	182.700
455.45	182.200
455.81	183.850
456.17	181.700
456.54	184.650
456.90	182.900
457.26	183.950
457.62	182.550
457.98	181.550
458.35	182.400
458.71	182.500
459.07	183.550
459.43	184.000
459.79	182.450
460.16	183.350
460.52	181.900
460.88	182.900
461.24	181.450
461.60	181.600
461.96	181.300
462.33	181.950
462.69	183.600
463.05	181.650
463.41	180.650
463.77	183.650
464.13	182.600
464.49	183.500
464.86	183.450
465.22	181.800
465.58	183.350
465.94	182.750
466.30	182.950
466.66	184.300
467.02	182.850
467.38	182.800
467.75	184.550
468.11	184.900
468.47	185.250
468.83	182.850
469.19	184.050
469.55	184.700
469.91	183.250
470.27	184.000
470.63	182.550
470.99	184.900
471.35	184.450
471.72	184.200
472.08	182.700
472.44	184.900
472.80	185.150
473.16	184.550
473.52	187.250
473.88	186.150
474.24	186.200
474.60	185.700
474.96	185.100
475.32	184.500
475.68	185.200
476.04	185.700
476.40	184.950
476.76	184.200
477.12	185.450
477.48	186.800
477.84	186.850
478.20	186.550
478.56	186.600
478.92	186.900
479.28	187.400
479.64	187.600
480.00	187.350
480.36	187.650
480.72	187.500
481.08	189.000
481.44	190.400
481.80	189.350
482.16	188.300
482.52	189.000
482.88	188.250
483.24	187.600
483.60	189.500
483.96	190.600
484.32	191.950
484.68	190.750
485.04	191.900
485.40	191.700
485.76	189.800
486.12	191.800
486.48	192.700
486.83	192.250
487.19	191.500
487.55	192.950
487.91	195.050
488.27	192.950
488.63	194.550
488.99	193.200
489.35	194.350
489.71	194.400
490.07	194.350
490.43	194.600
490.78	194.950
491.14	194.300
491.50	196.650
491.86	194.800
492.22	195.750
492.58	194.750
492.94	194.900
493.30	196.150
493.65	197.850
494.01	198.450
494.37	199.150
494.73	198.000
495.09	199.200
495.45	200.500
495.80	200.050
496.16	200.000
496.52	200.300
496.88	200.650
497.24	201.650
497.60	203.800
497.95	202.550
498.31	206.000
498.67	203.650
499.03	204.550
499.39	206.150
499.74	208.300
500.10	208.550
500.46	208.450
500.82	211.550
501.18	211.350
501.53	211.500
501.89	212.600
502.25	213.950
502.61	214.450
502.96	218.500
503.32	217.650
503.68	221.700
504.04	220.650
504.40	223.650
504.75	225.950
505.11	228.850
505.47	230.100
505.82	234.250
506.18	234.700
506.54	235.300
506.90	237.300
507.25	242.900
507.61	250.600
507.97	259.500
508.33	269.350
508.68	278.850
509.04	286.050
509.40	293.900
509.75	293.350
510.11	298.450
510.47	305.100
510.82	304.100
511.18	306.150
511.54	310.850
511.89	313.150
512.25	319.500
512.61	318.850
512.96	321.250
513.32	321.300
513.68	321.650
514.03	330.300
514.39	332.800
514.75	345.000
515.10	359.800
515.46	376.300
515.82	380.600
516.17	384.900
516.53	382.700
516.89	381.000
517.24	393.850
517.60	408.200
517.95	411.650
518.31	409.700
518.67	423.000
519.02	429.800
519.38	447.350
519.73	443.150
520.09	464.950
520.45	490.250
520.80	528.200
521.16	562.150
521.51	589.300
521.87	607.550
522.22	678.800
522.58	738.450
522.94	783.700
523.29	1049.600
523.65	1516.850
524.00	1790.450
524.36	2062.600
524.71	1801.950
525.07	1726.000
525.42	1765.250
525.78	1855.550
526.14	1884.450
526.49	1966.600
526.85	2130.100
527.20	2192.500
527.56	2339.250
527.91	2630.750
528.27	3003.000
528.62	3682.500
528.98	4071.850
529.33	4072.500
529.69	4072.700
530.04	4071.800
530.40	4072.850
530.75	4072.300
531.11	4071.600
531.46	4065.250
531.81	4065.050
532.17	3945.700
532.52	2353.450
532.88	2147.800
533.23	1909.000
533.59	1805.550
533.94	1709.600
534.30	1585.800
534.65	1497.850
535.01	1369.700
535.36	1250.350
535.71	1149.750
536.07	1034.500
536.42	872.550
536.78	787.750
537.13	713.800
537.48	672.000
537.84	646.350
538.19	607.950
538.55	556.300
538.90	524.800
539.25	499.800
539.61	488.550
539.96	434.450
540.32	394.350
540.67	365.900
541.02	359.850
541.38	343.050
541.73	330.450
542.08	317.250
542.44	308.250
542.79	302.450
543.15	294.050
543.50	291.850
543.85	283.550
544.21	276.550
544.56	268.200
544.91	258.050
545.27	250.000
545.62	241.350
545.97	241.900
546.32	234.900
546.68	230.850
547.03	226.900
547.38	225.800
547.74	221.550
548.09	218.550
548.44	215.200
548.80	213.200
549.15	207.300
549.50	202.700
549.85	203.700
550.21	201.100
550.56	198.550
550.91	198.850
551.26	197.550
551.62	194.800
551.97	195.600
552.32	192.250
552.67	191.550
553.03	188.350
553.38	187.700
553.73	186.650
554.08	185.000
554.44	183.750
554.79	183.800
555.14	182.900
555.49	180.850
555.85	180.450
556.20	179.000
556.55	178.850
556.90	177.450
557.25	176.300
557.61	176.800
557.96	174.900
558.31	174.450
558.66	175.500
559.01	174.950
559.36	172.650
559.72	172.300
560.07	173.700
560.42	171.100
560.77	172.850
561.12	169.550
561.47	171.850
561.83	171.450
562.18	170.150
562.53	170.500
562.88	171.400
563.23	171.150
563.58	171.200
563.93	169.300
564.28	170.500
564.64	168.950
564.99	168.250
565.34	168.250
565.69	171.200
566.04	168.500
566.39	167.750
566.74	167.900
567.09	167.350
567.44	166.550
567.79	165.250
568.14	167.550
568.50	168.250
568.85	165.800
569.20	165.150
569.55	166.100
569.90	165.050
570.25	163.300
570.60	164.700
570.95	164.800
571.30	165.450
571.65	163.800
572.00	163.700
572.35	164.750
572.70	164.200
573.05	163.200
573.40	163.750
573.75	162.500
574.10	163.750
574.45	164.150
574.80	164.950
575.15	163.250
575.50	164.850
575.85	163.050
576.20	163.250
576.55	163.000
576.90	163.800
577.25	162.200
577.60	162.600
577.95	163.850
578.30	163.950
578.65	163.100
579.00	162.700
579.35	163.650
579.70	163.700
580.05	162.550
580.40	162.850
580.74	163.450
581.09	163.000
581.44	164.400
581.79	164.200
582.14	162.750
582.49	164.550
582.84	163.000
583.19	161.400
583.54	161.850
583.89	161.600
584.24	160.800
584.58	162.700
584.93	161.750
585.28	163.850
585.63	162.150
585.98	161.950
586.33	161.600
586.68	161.200
587.03	161.300
587.37	160.400
587.72	160.900
588.07	158.800
588.42	160.100
588.77	158.750
589.12	159.350
589.46	159.400
589.81	160.700
590.16	159.350
590.51	160.200
590.86	160.200
591.21	159.300
591.55	160.250
591.90	159.750
592.25	159.350
592.60	159.450
592.95	158.700
593.29	159.100
593.64	158.350
593.99	157.900
594.34	158.500
594.68	158.800
595.03	159.600
595.38	159.250
595.73	157.300
596.07	157.700
596.42	157.850
596.77	158.500
597.12	158.200
597.46	157.500
597.81	158.650
598.16	158.100
598.51	158.950
598.85	157.150
599.20	157.450
599.55	156.850
599.90	157.100
600.24	156.800
600.59	156.100
600.94	156.750
601.28	157.050
601.63	155.700
601.98	156.150
602.32	157.600
602.67	156.850
603.02	158.150
603.36	157.900
603.71	156.900
604.06	157.450
604.40	157.700
604.75	157.650
605.10	156.800
605.44	157.850
605.79	156.050
606.14	157.250
606.48	157.350
606.83	156.650
607.17	157.750
607.52	159.200
607.87	159.550
608.21	162.150
608.56	165.550
608.90	172.100
609.25	176.400
609.60	176.400
609.94	173.900
610.29	171.550
610.63	168.700
610.98	166.250
611.33	165.900
611.67	165.500
612.02	163.950
612.36	162.950
612.71	162.650
613.05	161.150
613.40	161.500
613.74	161.100
614.09	161.300
614.44	160.950
614.78	160.650
615.13	164.050
615.47	164.800
615.82	168.100
616.16	168.900
616.51	174.550
616.85	177.450
617.20	180.250
617.54	185.850
617.89	190.200
618.23	200.550
618.58	215.650
618.92	233.500
619.27	260.400
619.61	285.300
619.96	308.350
620.30	322.000
620.64	327.250
620.99	321.000
621.33	307.500
621.68	293.350
622.02	285.650
622.37	285.200
622.71	290.400
623.06	300.550
623.40	313.300
623.74	328.550
624.09	339.500
624.43	338.200
624.78	327.250
625.12	310.300
625.46	292.600
625.81	275.900
626.15	266.200
626.50	258.650
626.84	257.150
627.18	265.300
627.53	271.950
627.87	285.050
628.21	295.150
628.56	303.950
628.90	303.750
629.25	297.950
629.59	292.050
629.93	278.800
630.28	268.900
630.62	260.950
630.96	260.850
631.31	265.550
631.65	277.050
631.99	291.700
632.34	312.000
632.68	327.950
633.02	341.300
633.36	342.100
633.71	337.800
634.05	325.100
634.39	308.250
634.74	294.600
635.08	286.050
635.42	283.400
635.76	285.600
636.11	291.750
636.45	310.100
636.79	320.250
637.14	331.400
637.48	340.350
637.82	334.900
638.16	327.950
638.50	314.700
638.85	294.500
639.19	281.800
639.53	268.200
639.87	260.050
640.22	259.350
640.56	260.550
640.90	261.600
641.24	265.850
641.58	269.800
641.93	267.600
642.27	264.550
642.61	256.200
642.95	244.950
643.29	230.950
643.64	224.500
643.98	212.750
644.32	208.900
644.66	204.250
645.00	203.700
645.34	203.050
645.68	203.450
646.03	203.150
646.37	197.350
646.71	194.250
647.05	192.250
647.39	185.800
647.73	182.050
648.07	177.300
648.42	175.900
648.76	171.950
649.10	173.600
649.44	173.300
649.78	170.550
650.12	172.900
650.46	169.450
650.80	170.100
651.14	169.000
651.48	165.750
651.82	165.800
652.16	164.750
652.51	162.150
652.85	161.150
653.19	162.050
653.53	162.850
653.87	161.550
654.21	161.650
654.55	161.150
654.89	161.150
655.23	161.250
655.57	160.000
655.91	160.450
656.25	159.200
656.59	158.150
656.93	157.950
657.27	158.150
657.61	160.700
657.95	159.050
658.29	157.800
658.63	157.950
658.97	158.750
659.31	158.200
659.65	156.600
659.99	158.000
660.33	157.800
660.67	155.700
661.01	156.450
661.35	156.050
661.68	155.400
662.02	155.950
662.36	154.300
662.70	155.150
663.04	153.350
663.38	155.700
663.72	153.800
664.06	153.250
664.40	153.500
664.74	152.950
665.08	154.100
665.42	152.650
665.75	151.800
666.09	153.400
666.43	154.900
666.77	151.900
667.11	152.100
667.45	151.950
667.79	151.750
668.12	151.750
668.46	151.250
668.80	152.150
669.14	152.600
669.48	151.250
669.82	150.750
670.16	151.500
670.49	151.300
670.83	151.450
671.17	149.800
671.51	152.050
671.85	151.150
672.18	150.700
672.52	152.250
672.86	151.150
673.20	150.650
673.54	151.550
673.87	151.050
674.21	150.600
674.55	150.650
674.89	150.400
675.22	150.700
675.56	150.650
675.90	153.150
676.24	151.750
676.57	151.250
676.91	150.850
677.25	150.650
677.59	150.750
677.92	149.700
678.26	150.100
678.60	151.900
678.93	151.050
679.27	150.550
679.61	150.200
679.95	149.600
680.28	150.700
680.62	150.900
680.96	150.100
681.29	149.950
681.63	150.050
681.97	150.200
682.30	151.050
682.64	151.300
682.98	149.450
683.31	151.500
683.65	152.000
683.99	149.250
684.32	150.750
684.66	149.850
685.00	150.100
685.33	151.800
685.67	150.400
686.00	149.750
686.34	149.050
686.68	152.300
687.01	148.850
687.35	149.700
687.68	149.800
688.02	150.500
688.36	150.750
688.69	149.650
689.03	150.800
689.36	149.900
689.70	150.100
690.03	149.950
690.37	149.250
690.71	150.550
691.04	150.650
691.38	149.900
691.71	149.700
692.05	148.450
692.38	148.950
692.72	149.100
693.05	150.200
693.39	149.750
693.72	149.750
694.06	149.150
694.39	149.300
694.73	149.350
695.06	148.750
695.40	149.000
695.73	149.900
696.07	151.400
696.40	150.300
696.74	151.100
697.07	150.350
697.41	149.100
697.74	150.650
698.08	149.800
698.41	150.000
698.74	149.800
699.08	148.850
699.41	149.450
699.75	148.750
700.08	149.900
700.42	149.650
700.75	149.500
701.08	149.850
701.42	149.300
701.75	150.400
702.09	150.100
702.42	151.350
702.75	151.000
703.09	149.900
703.42	149.350
703.75	149.150
704.09	148.400
704.42	150.150
704.76	150.200
705.09	150.400
705.42	149.900
705.76	150.200
706.09	149.500
706.42	151.350
706.76	150.400
707.09	149.550
707.42	149.900
707.76	150.050
708.09	149.600
708.42	150.750
708.75	150.550
709.09	149.900
709.42	149.350
709.75	149.050
710.09	150.200
710.42	149.800
710.75	149.300
711.08	150.000
711.42	150.150
711.75	150.250
712.08	150.100
712.41	148.800
712.75	149.600
713.08	148.900
713.41	149.100
713.74	149.700
714.08	150.650
714.41	150.450
714.74	149.800
715.07	150.500
715.41	148.750
715.74	149.400
716.07	150.000
716.40	150.300
716.73	149.700
717.06	147.800
717.40	149.250
717.73	149.200
718.06	148.800
718.39	149.650
718.72	150.550
719.05	149.100
719.39	149.000
719.72	148.600
720.05	148.800
720.38	149.800
720.71	149.600
721.04	148.850
721.37	149.500
721.71	149.500
722.04	148.600
722.37	148.000
722.70	149.200
723.03	149.050
723.36	149.650
723.69	149.600
724.02	149.350
724.35	148.950
724.68	150.800
725.01	149.550
725.35	148.400
725.68	150.100
726.01	150.450
726.34	150.650
726.67	149.100
727.00	147.600
727.33	148.800
727.66	148.750
727.99	149.700
728.32	150.000
728.65	150.000
728.98	149.500
729.31	150.150
729.64	148.350
729.97	149.000
730.30	149.600
730.63	149.900
730.96	149.600
731.29	147.950
731.62	147.350
731.95	150.650
732.28	150.600
732.61	149.500
732.94	149.100
733.27	149.250
733.60	149.100
733.93	149.000
734.25	148.000
734.58	149.750
734.91	147.950
735.24	149.150
735.57	150.400
735.90	149.250
736.23	149.100
736.56	148.700
736.89	149.900
737.22	150.300
737.55	149.600
737.87	150.000
738.20	149.700
738.53	149.900
738.86	148.050
739.19	148.950
739.52	149.900
739.85	148.900
740.17	148.800
740.50	149.300
740.83	149.650
741.16	149.700
741.49	150.700
741.82	149.700
742.14	149.000
742.47	149.250
742.80	149.200
743.13	148.200
743.46	149.550
743.78	150.250
744.11	148.700
744.44	148.700
744.77	149.400
745.10	149.350
745.42	149.100
745.75	148.650
746.08	149.550
746.41	148.950
746.73	149.400
747.06	150.000
747.39	148.950
747.72	149.000
748.04	149.450
748.37	149.900
748.70	149.000
749.02	149.700
749.35	150.200
749.68	149.100
750.01	150.650
750.33	150.250
750.66	149.400
750.99	150.950
751.31	148.250
751.64	148.750
751.97	148.100
752.29	149.000
752.62	148.250
752.95	149.150
753.27	149.650
753.60	150.100
753.93	149.250
754.25	148.450
754.58	148.700
754.91	149.700
755.23	151.050
755.56	151.300
755.88	149.900
756.21	149.750
756.54	148.950
756.86	148.700
757.19	147.500
757.51	149.450
757.84	149.800
758.17	148.650
758.49	148.850
758.82	148.850
759.14	149.550
759.47	148.550
759.79	149.550
760.12	150.450
760.44	148.850
760.77	149.350
761.09	148.650
761.42	149.950
761.75	150.350
762.07	149.250
762.40	148.100
762.72	149.300
763.05	148.950
763.37	149.450
763.70	148.150
764.02	150.300
764.35	148.950
764.67	147.700
764.99	148.650
765.32	148.150
765.64	149.050
765.97	148.150
766.29	149.200
766.62	148.750
766.94	150.500
767.27	149.050
767.59	148.300
767.91	149.100
768.24	150.000
768.56	148.800
768.89	149.400
769.21	149.550
769.54	151.900
769.86	152.550
770.18	150.850
770.51	149.700
770.83	150.500
771.15	149.350
771.48	148.650
771.80	149.000
772.13	149.900
772.45	149.450
772.77	149.800
773.10	148.400
773.42	149.400
773.74	148.600
774.07	149.550
774.39	149.100
774.71	148.500
775.04	149.250
775.36	148.100
775.68	147.250
776.01	147.600
776.33	148.150
776.65	148.250
776.97	148.100
777.30	150.500
777.62	148.750
777.94	149.600
778.26	148.550
778.59	147.850
778.91	148.050
779.23	148.450
779.55	149.150
779.88	148.400
780.20	149.300
780.52	148.400
780.84	148.200
781.17	148.650
781.49	147.800
781.81	148.550
782.13	148.300
782.45	149.300
782.78	149.950
783.10	150.850
783.42	149.550
783.74	148.250
784.06	149.100
784.39	147.900
784.71	148.950
785.03	150.050
785.35	149.950
785.67	148.950
785.99	148.350
786.31	149.200
786.64	148.150
786.96	150.600
787.28	150.500
787.60	147.300
787.92	149.250
788.24	149.000
788.56	149.250
788.88	148.850
789.20	151.800
789.53	148.900
789.85	150.100
790.17	149.400
790.49	149.350
790.81	148.700
791.13	149.450
791.45	149.950
