OOIBase32 Version 2.0.6.5 Data File
++++++++++++++++++++++++++++++++++++
Date: 03-26-2021, 17:59:32
User: Valued Ocean Optics Customer
Spectrometer Serial Number: USB2E5007
Spectrometer Channel: Master
Integration Time (msec): 45
Spectra Averaged: 20
Boxcar Smoothing: 0
Correct for Electrical Dark: Disabled
Time Normalized: Disabled
Dual-beam Reference: Disabled
Reference Channel: Master
Temperature: Not acquired
Spectrometer Type: S2000
ADC Type: USB2000
Number of Pixels in File: 2048
Graph Title: 
>>>>>Begin Spectral Data<<<<<
340.15	0.000
340.52	160.500
340.90	161.550
341.27	162.000
341.64	165.550
342.01	169.600
342.38	169.300
342.76	170.600
343.13	172.700
343.50	171.150
343.87	172.350
344.24	170.200
344.61	171.850
344.98	170.850
345.36	171.500
345.73	171.050
346.10	170.100
346.47	171.600
346.84	170.800
347.21	170.400
347.58	169.950
347.96	172.850
348.33	168.850
348.70	170.350
349.07	171.200
349.44	173.250
349.81	176.400
350.18	174.350
350.55	173.550
350.92	174.100
351.30	173.700
351.67	173.550
352.04	175.000
352.41	173.250
352.78	175.050
353.15	175.150
353.52	174.100
353.89	175.250
354.26	174.250
354.63	173.700
355.00	174.750
355.37	175.750
355.75	174.350
356.12	173.350
356.49	175.950
356.86	176.250
357.23	174.550
357.60	175.300
357.97	173.100
358.34	175.400
358.71	177.350
359.08	175.450
359.45	174.550
359.82	175.200
360.19	177.700
360.56	174.350
360.93	177.000
361.30	177.050
361.67	175.850
362.04	177.100
362.41	175.500
362.78	176.650
363.15	178.250
363.52	177.000
363.89	176.600
364.26	175.950
364.63	176.350
365.00	178.200
365.37	177.250
365.74	176.200
366.11	177.600
366.48	179.350
366.85	175.800
367.22	176.550
367.59	179.450
367.96	177.200
368.33	177.550
368.70	177.900
369.07	177.900
369.44	177.800
369.81	176.700
370.18	179.950
370.55	176.750
370.92	178.300
371.29	179.500
371.66	178.550
372.03	178.000
372.40	177.650
372.77	177.500
373.13	178.000
373.50	177.550
373.87	177.750
374.24	178.150
374.61	179.050
374.98	178.450
375.35	180.450
375.72	179.000
376.09	178.350
376.46	177.650
376.83	179.250
377.20	177.900
377.56	178.650
377.93	179.950
378.30	179.100
378.67	179.400
379.04	180.550
379.41	179.800
379.78	179.400
380.15	180.700
380.51	177.700
380.88	178.800
381.25	178.750
381.62	180.100
381.99	178.200
382.36	179.200
382.73	178.800
383.09	180.850
383.46	180.150
383.83	180.250
384.20	179.350
384.57	182.150
384.94	179.750
385.31	178.800
385.67	180.600
386.04	178.750
386.41	179.900
386.78	179.150
387.15	182.300
387.51	181.650
387.88	181.100
388.25	180.900
388.62	181.400
388.99	180.600
389.36	180.350
389.72	180.800
390.09	188.000
390.46	181.550
390.83	181.350
391.19	180.750
391.56	180.650
391.93	180.550
392.30	181.950
392.67	181.800
393.03	180.600
393.40	180.700
393.77	181.100
394.14	181.250
394.50	181.000
394.87	181.950
395.24	181.800
395.61	180.800
395.97	182.600
396.34	182.400
396.71	180.500
397.08	185.800
397.44	183.000
397.81	182.700
398.18	183.800
398.55	181.800
398.91	182.750
399.28	183.000
399.65	184.000
400.01	183.450
400.38	181.300
400.75	182.850
401.12	181.650
401.48	180.550
401.85	184.000
402.22	181.750
402.58	182.700
402.95	183.900
403.32	183.650
403.68	183.450
404.05	181.800
404.42	183.650
404.78	184.150
405.15	184.350
405.52	184.050
405.88	184.100
406.25	183.000
406.62	183.450
406.98	183.900
407.35	183.400
407.72	183.300
408.08	184.900
408.45	183.650
408.82	184.100
409.18	183.050
409.55	183.350
409.91	184.050
410.28	185.400
410.65	183.100
411.01	183.550
411.38	183.100
411.75	181.800
412.11	184.050
412.48	184.050
412.84	186.000
413.21	183.450
413.58	183.800
413.94	185.650
414.31	183.950
414.67	185.450
415.04	184.500
415.41	185.450
415.77	186.450
416.14	184.800
416.50	184.650
416.87	185.150
417.23	184.600
417.60	186.250
417.97	183.750
418.33	186.200
418.70	184.500
419.06	185.950
419.43	185.400
419.79	185.400
420.16	184.450
420.52	186.050
420.89	185.850
421.25	185.050
421.62	183.800
421.98	185.700
422.35	184.600
422.72	184.700
423.08	185.250
423.45	186.700
423.81	185.450
424.18	187.050
424.54	186.800
424.91	185.500
425.27	188.000
425.64	185.450
426.00	186.350
426.37	187.550
426.73	185.100
427.09	186.400
427.46	187.450
427.82	187.850
428.19	186.550
428.55	186.900
428.92	186.750
429.28	186.500
429.65	186.050
430.01	187.750
430.38	185.550
430.74	186.150
431.11	187.900
431.47	187.600
431.83	187.050
432.20	186.700
432.56	187.600
432.93	188.150
433.29	187.950
433.66	193.950
434.02	196.350
434.38	193.750
434.75	188.200
435.11	187.350
435.48	187.550
435.84	186.450
436.20	186.700
436.57	187.050
436.93	187.600
437.30	186.700
437.66	185.900
438.02	188.150
438.39	187.650
438.75	186.700
439.12	188.200
439.48	187.250
439.84	188.400
440.21	185.700
440.57	186.400
440.93	187.700
441.30	186.100
441.66	187.250
442.02	188.900
442.39	188.050
442.75	187.900
443.11	187.050
443.48	189.050
443.84	187.000
444.20	186.750
444.57	188.000
444.93	186.300
445.29	190.550
445.66	189.250
446.02	188.200
446.38	187.750
446.75	187.450
447.11	187.500
447.47	187.200
447.84	186.950
448.20	188.350
448.56	187.700
448.92	188.200
449.29	189.450
449.65	189.050
450.01	189.050
450.37	186.850
450.74	187.200
451.10	187.450
451.46	187.250
451.83	188.050
452.19	191.850
452.55	186.300
452.91	187.200
453.28	187.100
453.64	186.200
454.00	191.200
454.36	188.350
454.72	186.800
455.09	187.750
455.45	187.650
455.81	188.450
456.17	189.550
456.54	187.850
456.90	187.450
457.26	190.100
457.62	187.500
457.98	186.600
458.35	188.650
458.71	188.500
459.07	188.200
459.43	189.400
459.79	187.650
460.16	188.800
460.52	186.700
460.88	188.750
461.24	189.950
461.60	189.450
461.96	188.750
462.33	188.300
462.69	190.000
463.05	186.850
463.41	189.200
463.77	189.600
464.13	188.750
464.49	189.450
464.86	188.900
465.22	187.850
465.58	188.100
465.94	188.450
466.30	190.800
466.66	189.950
467.02	190.050
467.38	187.850
467.75	189.550
468.11	190.700
468.47	191.800
468.83	189.500
469.19	188.600
469.55	189.050
469.91	190.650
470.27	189.950
470.63	190.200
470.99	189.000
471.35	192.150
471.72	190.900
472.08	191.500
472.44	191.400
472.80	190.800
473.16	190.950
473.52	191.750
473.88	192.700
474.24	191.650
474.60	190.100
474.96	191.150
475.32	192.150
475.68	193.200
476.04	192.300
476.40	192.150
476.76	192.050
477.12	193.250
477.48	194.150
477.84	195.000
478.20	192.400
478.56	194.350
478.92	194.000
479.28	192.500
479.64	195.600
480.00	194.850
480.36	194.850
480.72	195.250
481.08	196.150
481.44	197.900
481.80	195.250
482.16	196.450
482.52	197.250
482.88	197.750
483.24	197.650
483.60	198.250
483.96	200.050
484.32	198.550
484.68	196.450
485.04	200.150
485.40	200.450
485.76	202.000
486.12	202.400
486.48	202.600
486.83	202.200
487.19	201.900
487.55	201.000
487.91	202.650
488.27	203.100
488.63	204.100
488.99	202.850
489.35	204.300
489.71	203.700
490.07	203.350
490.43	203.900
490.78	204.400
491.14	206.950
491.50	205.750
491.86	206.000
492.22	206.350
492.58	205.700
492.94	205.300
493.30	208.150
493.65	207.450
494.01	209.200
494.37	212.700
494.73	211.050
495.09	210.600
495.45	212.000
495.80	215.550
496.16	215.450
496.52	213.450
496.88	215.750
497.24	213.850
497.60	217.100
497.95	217.000
498.31	216.900
498.67	217.450
499.03	221.500
499.39	219.750
499.74	222.100
500.10	222.500
500.46	224.700
500.82	225.850
501.18	228.050
501.53	227.850
501.89	229.700
502.25	233.850
502.61	232.900
502.96	236.200
503.32	236.750
503.68	238.950
504.04	242.800
504.40	242.100
504.75	247.200
505.11	250.650
505.47	254.150
505.82	256.750
506.18	260.900
506.54	262.350
506.90	263.500
507.25	269.600
507.61	279.550
507.97	291.600
508.33	304.050
508.68	322.500
509.04	332.900
509.40	338.500
509.75	341.750
510.11	347.050
510.47	355.650
510.82	359.050
511.18	362.000
511.54	360.950
511.89	365.450
512.25	365.050
512.61	371.400
512.96	371.700
513.32	374.650
513.68	379.350
514.03	385.700
514.39	398.150
514.75	411.500
515.10	433.550
515.46	445.350
515.82	459.750
516.17	468.400
516.53	457.750
516.89	467.550
517.24	474.600
517.60	483.350
517.95	494.300
518.31	510.950
518.67	516.050
519.02	534.400
519.38	554.800
519.73	546.950
520.09	592.200
520.45	613.850
520.80	659.850
521.16	716.800
521.51	772.750
521.87	801.050
522.22	864.750
522.58	936.100
522.94	1050.800
523.29	1353.800
523.65	1980.700
524.00	2437.650
524.36	2636.900
524.71	2481.750
525.07	2341.300
525.42	2362.400
525.78	2433.400
526.14	2525.600
526.49	2627.050
526.85	2772.100
527.20	2938.200
527.56	3288.300
527.91	3388.350
528.27	3833.850
528.62	4060.350
528.98	4061.850
529.33	4060.900
529.69	4061.150
530.04	4061.550
530.40	4061.750
530.75	4060.850
531.11	4061.450
531.46	4055.950
531.81	4053.750
532.17	4057.150
532.52	4044.850
532.88	2943.350
533.23	2519.800
533.59	2512.050
533.94	2274.750
534.30	2193.900
534.65	1993.550
535.01	1859.800
535.36	1645.150
535.71	1477.450
536.07	1311.700
536.42	1146.000
536.78	1023.900
537.13	955.300
537.48	895.600
537.84	809.500
538.19	774.500
538.55	704.350
538.90	676.700
539.25	615.950
539.61	587.850
539.96	544.450
540.32	472.950
540.67	449.500
541.02	423.200
541.38	412.950
541.73	392.200
542.08	372.250
542.44	364.500
542.79	345.250
543.15	336.650
543.50	330.700
543.85	318.150
544.21	311.050
544.56	299.850
544.91	288.950
545.27	277.750
545.62	272.100
545.97	269.350
546.32	255.300
546.68	252.100
547.03	248.300
547.38	247.750
547.74	240.350
548.09	238.150
548.44	232.050
548.80	230.150
549.15	225.250
549.50	219.300
549.85	219.000
550.21	212.950
550.56	212.850
550.91	210.600
551.26	209.350
551.62	206.250
551.97	206.950
552.32	203.500
552.67	200.350
553.03	201.750
553.38	196.050
553.73	195.400
554.08	193.750
554.44	193.350
554.79	189.650
555.14	189.800
555.49	186.850
555.85	188.100
556.20	185.400
556.55	183.650
556.90	182.000
557.25	182.700
557.61	180.950
557.96	180.750
558.31	177.900
558.66	178.400
559.01	179.250
559.36	176.050
559.72	177.550
560.07	175.200
560.42	174.250
560.77	175.150
561.12	176.200
561.47	174.800
561.83	172.500
562.18	176.150
562.53	174.900
562.88	174.000
563.23	174.350
563.58	173.650
563.93	173.650
564.28	174.700
564.64	169.750
564.99	170.650
565.34	171.150
565.69	173.000
566.04	170.200
566.39	169.050
566.74	169.850
567.09	170.250
567.44	169.700
567.79	168.250
568.14	168.950
568.50	166.850
568.85	168.100
569.20	167.350
569.55	167.500
569.90	166.500
570.25	165.700
570.60	166.350
570.95	165.600
571.30	164.500
571.65	164.400
572.00	163.200
572.35	164.250
572.70	164.200
573.05	162.650
573.40	163.150
573.75	162.650
574.10	163.900
574.45	162.850
574.80	164.200
575.15	163.350
575.50	164.850
575.85	162.050
576.20	162.550
576.55	162.800
576.90	164.400
577.25	162.400
577.60	163.400
577.95	163.000
578.30	163.550
578.65	162.050
579.00	162.200
579.35	162.700
579.70	162.200
580.05	161.900
580.40	162.550
580.74	161.900
581.09	164.200
581.44	162.000
581.79	161.750
582.14	160.350
582.49	162.500
582.84	160.850
583.19	160.300
583.54	161.600
583.89	160.600
584.24	160.900
584.58	160.850
584.93	160.350
585.28	162.100
585.63	161.750
585.98	160.950
586.33	160.600
586.68	159.900
587.03	160.300
587.37	158.650
587.72	158.600
588.07	156.800
588.42	157.800
588.77	157.850
589.12	158.700
589.46	158.800
589.81	159.250
590.16	157.150
590.51	159.050
590.86	158.850
591.21	158.500
591.55	158.800
591.90	157.650
592.25	158.050
592.60	157.600
592.95	157.150
593.29	155.700
593.64	157.000
593.99	157.550
594.34	156.050
594.68	156.550
595.03	155.950
595.38	155.750
595.73	156.150
596.07	154.950
596.42	156.350
596.77	155.250
597.12	154.950
597.46	155.550
597.81	155.150
598.16	155.200
598.51	157.650
598.85	155.350
599.20	154.050
599.55	154.500
599.90	154.300
600.24	154.600
600.59	153.200
600.94	155.050
601.28	155.200
601.63	154.150
601.98	153.700
602.32	153.350
602.67	155.250
603.02	153.950
603.36	155.250
603.71	154.600
604.06	154.900
604.40	154.200
604.75	153.000
605.10	154.050
605.44	155.950
605.79	153.150
606.14	154.400
606.48	154.650
606.83	155.750
607.17	155.250
607.52	156.550
607.87	157.200
608.21	158.350
608.56	161.550
608.90	168.350
609.25	171.100
609.60	172.200
609.94	169.600
610.29	168.550
610.63	165.300
610.98	162.750
611.33	162.300
611.67	161.300
612.02	160.300
612.36	159.850
612.71	158.700
613.05	158.550
613.40	156.900
613.74	155.950
614.09	155.800
614.44	154.750
614.78	154.650
615.13	154.550
615.47	153.400
615.82	154.450
616.16	152.800
616.51	154.250
616.85	155.650
617.20	153.150
617.54	154.750
617.89	153.850
618.23	153.250
618.58	154.500
618.92	152.650
619.27	155.500
619.61	153.350
619.96	154.600
620.30	154.150
620.64	154.800
620.99	154.600
621.33	153.700
621.68	154.300
622.02	154.300
622.37	153.100
622.71	152.750
623.06	155.300
623.40	155.150
623.74	154.250
624.09	154.450
624.43	154.150
624.78	152.050
625.12	152.800
625.46	153.100
625.81	152.450
626.15	153.850
626.50	153.500
626.84	152.850
627.18	154.600
627.53	154.150
627.87	153.450
628.21	153.600
628.56	152.950
628.90	152.650
629.25	154.250
629.59	154.450
629.93	152.900
630.28	152.750
630.62	153.100
630.96	153.250
631.31	152.650
631.65	151.650
631.99	153.100
632.34	151.200
632.68	152.600
633.02	151.600
633.36	153.200
633.71	152.650
634.05	152.250
634.39	152.200
634.74	152.300
635.08	151.900
635.42	152.350
635.76	153.550
636.11	151.600
636.45	154.950
636.79	154.550
637.14	154.800
637.48	155.300
637.82	154.200
638.16	154.850
638.50	152.600
638.85	153.350
639.19	155.150
639.53	155.400
639.87	156.050
640.22	156.700
640.56	157.550
640.90	158.150
641.24	159.450
641.58	160.850
641.93	159.250
642.27	160.000
642.61	161.000
642.95	159.600
643.29	158.150
643.64	158.900
643.98	159.500
644.32	160.200
644.66	161.950
645.00	164.850
645.34	168.500
645.68	169.650
646.03	169.950
646.37	170.600
646.71	167.800
647.05	167.300
647.39	164.300
647.73	166.250
648.07	165.200
648.42	165.200
648.76	165.800
649.10	167.850
649.44	170.250
649.78	169.300
650.12	174.650
650.46	172.300
650.80	171.150
651.14	170.900
651.48	167.750
651.82	165.250
652.16	164.700
652.51	161.400
652.85	159.050
653.19	159.400
653.53	161.450
653.87	160.250
654.21	161.250
654.55	160.850
654.89	159.850
655.23	159.050
655.57	157.250
655.91	155.650
656.25	154.750
656.59	152.950
656.93	151.200
657.27	150.900
657.61	151.850
657.95	150.450
658.29	150.050
658.63	148.950
658.97	151.250
659.31	150.000
659.65	149.800
659.99	150.550
660.33	148.800
660.67	147.500
661.01	148.350
661.35	148.450
661.68	148.800
662.02	146.900
662.36	145.950
662.70	147.950
663.04	148.700
663.38	149.600
663.72	147.100
664.06	148.450
664.40	148.200
664.74	147.250
665.08	147.600
665.42	148.400
665.75	145.700
666.09	146.850
666.43	150.700
666.77	147.100
667.11	147.150
667.45	147.900
667.79	147.850
668.12	146.050
668.46	145.850
668.80	146.100
669.14	145.650
669.48	146.700
669.82	146.850
670.16	147.350
670.49	146.000
670.83	147.050
671.17	146.650
671.51	146.100
671.85	145.450
672.18	145.850
672.52	146.100
672.86	146.150
673.20	144.750
673.54	147.000
673.87	145.400
674.21	146.900
674.55	147.200
674.89	146.450
675.22	146.400
675.56	145.700
675.90	146.450
676.24	145.450
676.57	145.800
676.91	147.500
677.25	146.000
677.59	145.900
677.92	145.650
678.26	144.950
678.60	145.800
678.93	146.150
679.27	145.700
679.61	145.200
679.95	144.400
680.28	146.150
680.62	145.250
680.96	146.050
681.29	145.850
681.63	146.000
681.97	144.900
682.30	146.200
682.64	146.250
682.98	145.200
683.31	145.750
683.65	146.400
683.99	144.550
684.32	145.450
684.66	145.300
685.00	146.400
685.33	146.550
685.67	144.650
686.00	144.550
686.34	145.250
686.68	147.900
687.01	144.950
687.35	145.600
687.68	146.450
688.02	145.650
688.36	146.100
688.69	144.600
689.03	145.350
689.36	145.800
689.70	144.650
690.03	146.000
690.37	145.000
690.71	144.800
691.04	145.350
691.38	145.150
691.71	145.900
692.05	144.850
692.38	144.800
692.72	146.000
693.05	145.350
693.39	145.450
693.72	144.000
694.06	144.850
694.39	143.900
694.73	145.550
695.06	145.100
695.40	144.250
695.73	145.050
696.07	146.050
696.40	145.150
696.74	146.000
697.07	145.000
697.41	144.350
697.74	147.050
698.08	145.000
698.41	145.300
698.74	146.200
699.08	144.800
699.41	145.950
699.75	144.850
700.08	144.800
700.42	145.050
700.75	144.650
701.08	145.150
701.42	143.950
701.75	144.150
702.09	145.400
702.42	147.800
702.75	145.000
703.09	145.300
703.42	144.700
703.75	144.100
704.09	143.950
704.42	146.350
704.76	143.800
705.09	145.900
705.42	144.950
705.76	146.300
706.09	144.650
706.42	145.800
706.76	145.750
707.09	145.550
707.42	145.400
707.76	145.550
708.09	145.100
708.42	145.200
708.75	145.200
709.09	144.400
709.42	144.950
709.75	145.950
710.09	146.950
710.42	145.100
710.75	144.400
711.08	145.700
711.42	146.050
711.75	146.500
712.08	144.750
712.41	143.750
712.75	146.050
713.08	144.400
713.41	145.200
713.74	145.600
714.08	145.500
714.41	145.100
714.74	144.250
715.07	146.200
715.41	144.300
715.74	145.350
716.07	144.150
716.40	144.350
716.73	144.500
717.06	142.500
717.40	144.750
717.73	143.800
718.06	144.900
718.39	145.750
718.72	145.450
719.05	144.500
719.39	144.550
719.72	145.550
720.05	145.050
720.38	144.550
720.71	143.750
721.04	144.100
721.37	143.250
721.71	144.300
722.04	144.050
722.37	143.700
722.70	145.000
723.03	145.350
723.36	142.650
723.69	144.300
724.02	144.450
724.35	144.100
724.68	145.200
725.01	144.450
725.35	144.450
725.68	144.750
726.01	144.500
726.34	144.300
726.67	144.900
727.00	143.950
727.33	143.800
727.66	145.600
727.99	145.500
728.32	143.750
728.65	145.100
728.98	144.000
729.31	144.950
729.64	144.050
729.97	143.400
730.30	143.650
730.63	144.300
730.96	143.550
731.29	143.800
731.62	143.750
731.95	145.350
732.28	145.500
732.61	145.300
732.94	145.550
733.27	144.950
733.60	143.350
733.93	142.850
734.25	144.000
734.58	143.800
734.91	143.600
735.24	143.400
735.57	144.800
735.90	143.700
736.23	144.600
736.56	143.500
736.89	144.800
737.22	144.650
737.55	145.100
737.87	144.550
738.20	144.450
738.53	143.250
738.86	144.450
739.19	144.250
739.52	144.650
739.85	143.700
740.17	144.600
740.50	144.300
740.83	143.200
741.16	144.150
741.49	144.900
741.82	145.250
742.14	144.500
742.47	144.250
742.80	144.600
743.13	144.200
743.46	143.650
743.78	144.900
744.11	144.550
744.44	143.600
744.77	144.150
745.10	144.700
745.42	144.200
745.75	143.650
746.08	143.750
746.41	144.200
746.73	143.650
747.06	145.400
747.39	144.350
747.72	144.050
748.04	142.900
748.37	144.750
748.70	144.250
749.02	144.000
749.35	145.000
749.68	144.850
750.01	145.500
750.33	146.550
750.66	145.850
750.99	145.800
751.31	144.500
751.64	143.150
751.97	143.000
752.29	146.000
752.62	145.400
752.95	143.300
753.27	144.600
753.60	145.500
753.93	143.600
754.25	143.700
754.58	145.250
754.91	144.050
755.23	146.700
755.56	148.000
755.88	145.500
756.21	144.650
756.54	143.850
756.86	144.100
757.19	145.050
757.51	144.050
757.84	144.600
758.17	144.500
758.49	144.950
758.82	143.750
759.14	143.750
759.47	144.400
759.79	145.150
760.12	144.350
760.44	143.650
760.77	144.700
761.09	144.700
761.42	145.200
761.75	145.800
762.07	143.900
762.40	144.450
762.72	144.750
763.05	145.200
763.37	144.450
763.70	144.150
764.02	144.750
764.35	143.500
764.67	143.650
764.99	145.300
765.32	143.700
765.64	144.500
765.97	143.950
766.29	144.550
766.62	144.250
766.94	145.650
767.27	146.000
767.59	143.500
767.91	144.550
768.24	145.050
768.56	144.250
768.89	145.300
769.21	146.350
769.54	148.600
769.86	148.550
770.18	148.300
770.51	145.450
770.83	144.450
771.15	144.950
771.48	144.650
771.80	144.000
772.13	144.700
772.45	145.500
772.77	144.050
773.10	143.850
773.42	144.150
773.74	143.650
774.07	144.350
774.39	144.650
774.71	144.000
775.04	144.100
775.36	143.350
775.68	142.850
776.01	142.700
776.33	143.050
776.65	143.950
776.97	143.350
777.30	146.000
777.62	143.700
777.94	144.350
778.26	143.050
778.59	143.600
778.91	143.600
779.23	144.750
779.55	144.250
779.88	143.700
780.20	143.850
780.52	142.350
780.84	144.100
781.17	143.750
781.49	145.400
781.81	143.950
782.13	144.050
782.45	145.450
782.78	143.450
783.10	144.350
783.42	143.550
783.74	143.300
784.06	143.700
784.39	142.850
784.71	143.800
785.03	144.450
785.35	145.100
785.67	143.750
785.99	143.200
786.31	142.600
786.64	143.250
786.96	144.000
787.28	144.150
787.60	143.300
787.92	143.800
788.24	144.150
788.56	143.500
788.88	142.850
789.20	144.300
789.53	144.800
789.85	144.650
790.17	143.350
790.49	143.300
790.81	143.450
791.13	143.900
791.45	145.150
