OOIBase32 Version 2.0.6.5 Data File
++++++++++++++++++++++++++++++++++++
Date: 03-26-2021, 17:44:02
User: Valued Ocean Optics Customer
Spectrometer Serial Number: USB2E5007
Spectrometer Channel: Master
Integration Time (msec): 45
Spectra Averaged: 20
Boxcar Smoothing: 0
Correct for Electrical Dark: Disabled
Time Normalized: Disabled
Dual-beam Reference: Disabled
Reference Channel: Master
Temperature: Not acquired
Spectrometer Type: S2000
ADC Type: USB2000
Number of Pixels in File: 2048
Graph Title: 
>>>>>Begin Spectral Data<<<<<
340.15	0.000
340.52	156.450
340.90	158.200
341.27	160.250
341.64	161.650
342.01	165.000
342.38	165.700
342.76	165.750
343.13	166.100
343.50	167.350
343.87	167.050
344.24	167.600
344.61	167.100
344.98	167.250
345.36	166.650
345.73	168.150
346.10	165.700
346.47	166.900
346.84	167.100
347.21	166.250
347.58	166.500
347.96	169.550
348.33	166.200
348.70	166.550
349.07	167.300
349.44	168.000
349.81	171.650
350.18	169.250
350.55	169.000
350.92	169.250
351.30	168.600
351.67	168.000
352.04	168.600
352.41	168.950
352.78	171.200
353.15	168.600
353.52	169.500
353.89	171.450
354.26	169.100
354.63	170.400
355.00	170.950
355.37	170.150
355.75	169.750
356.12	169.150
356.49	171.100
356.86	170.500
357.23	169.200
357.60	170.050
357.97	168.700
358.34	170.150
358.71	171.900
359.08	171.000
359.45	169.950
359.82	171.350
360.19	170.300
360.56	170.600
360.93	171.100
361.30	170.000
361.67	171.300
362.04	172.600
362.41	172.300
362.78	171.450
363.15	171.850
363.52	171.150
363.89	171.950
364.26	169.800
364.63	170.350
365.00	171.650
365.37	171.850
365.74	171.600
366.11	171.550
366.48	173.700
366.85	171.300
367.22	171.400
367.59	174.650
367.96	171.500
368.33	171.200
368.70	171.700
369.07	172.650
369.44	172.550
369.81	173.650
370.18	173.650
370.55	171.800
370.92	173.750
371.29	171.550
371.66	173.800
372.03	171.100
372.40	173.350
372.77	172.700
373.13	171.400
373.50	173.450
373.87	172.550
374.24	172.600
374.61	172.350
374.98	173.500
375.35	174.050
375.72	173.950
376.09	173.250
376.46	173.350
376.83	172.800
377.20	173.750
377.56	172.800
377.93	173.550
378.30	173.850
378.67	172.600
379.04	174.300
379.41	173.600
379.78	174.150
380.15	176.800
380.51	173.350
380.88	174.750
381.25	173.950
381.62	174.450
381.99	174.550
382.36	174.200
382.73	173.500
383.09	175.650
383.46	174.750
383.83	174.100
384.20	175.600
384.57	173.500
384.94	174.450
385.31	173.650
385.67	174.050
386.04	173.450
386.41	175.500
386.78	173.350
387.15	176.200
387.51	174.350
387.88	175.050
388.25	174.100
388.62	175.550
388.99	176.400
389.36	174.750
389.72	175.600
390.09	181.200
390.46	175.100
390.83	175.400
391.19	176.800
391.56	174.200
391.93	175.900
392.30	176.050
392.67	176.250
393.03	175.400
393.40	174.250
393.77	175.050
394.14	175.900
394.50	175.300
394.87	176.400
395.24	175.250
395.61	176.450
395.97	175.150
396.34	175.600
396.71	175.550
397.08	177.200
397.44	175.500
397.81	175.850
398.18	175.850
398.55	176.500
398.91	176.200
399.28	176.000
399.65	176.250
400.01	178.000
400.38	177.400
400.75	176.700
401.12	176.050
401.48	175.350
401.85	178.600
402.22	176.650
402.58	176.950
402.95	179.300
403.32	177.650
403.68	176.700
404.05	176.450
404.42	176.800
404.78	177.800
405.15	177.750
405.52	177.950
405.88	178.250
406.25	177.700
406.62	176.650
406.98	177.700
407.35	176.400
407.72	176.150
408.08	178.150
408.45	176.500
408.82	177.600
409.18	177.450
409.55	177.350
409.91	178.900
410.28	177.350
410.65	176.700
411.01	177.650
411.38	177.550
411.75	177.350
412.11	177.450
412.48	179.550
412.84	179.500
413.21	177.650
413.58	178.150
413.94	177.800
414.31	176.750
414.67	178.750
415.04	177.150
415.41	178.200
415.77	179.550
416.14	178.950
416.50	177.250
416.87	178.400
417.23	176.550
417.60	178.800
417.97	178.100
418.33	179.950
418.70	180.900
419.06	181.150
419.43	179.250
419.79	177.900
420.16	178.850
420.52	179.300
420.89	179.150
421.25	179.500
421.62	179.200
421.98	179.800
422.35	178.700
422.72	177.450
423.08	179.800
423.45	179.650
423.81	179.750
424.18	180.250
424.54	178.400
424.91	178.000
425.27	179.450
425.64	177.800
426.00	179.750
426.37	179.500
426.73	179.150
427.09	180.100
427.46	180.200
427.82	180.650
428.19	179.300
428.55	180.000
428.92	180.300
429.28	179.600
429.65	179.250
430.01	181.900
430.38	179.750
430.74	178.250
431.11	179.850
431.47	180.150
431.83	181.050
432.20	180.850
432.56	180.750
432.93	180.100
433.29	182.400
433.66	184.600
434.02	187.450
434.38	186.350
434.75	182.000
435.11	180.050
435.48	180.750
435.84	179.050
436.20	179.750
436.57	179.600
436.93	180.550
437.30	179.300
437.66	179.800
438.02	179.350
438.39	180.300
438.75	180.250
439.12	179.950
439.48	181.150
439.84	181.700
440.21	180.900
440.57	178.400
440.93	180.400
441.30	178.600
441.66	181.050
442.02	181.100
442.39	179.800
442.75	182.050
443.11	181.200
443.48	181.100
443.84	181.950
444.20	179.700
444.57	181.150
444.93	179.300
445.29	184.500
445.66	179.900
446.02	180.950
446.38	180.850
446.75	180.700
447.11	178.800
447.47	180.950
447.84	179.050
448.20	179.900
448.56	181.350
448.92	180.950
449.29	182.500
449.65	181.300
450.01	180.950
450.37	181.650
450.74	180.300
451.10	180.450
451.46	180.600
451.83	180.800
452.19	182.850
452.55	180.450
452.91	179.600
453.28	181.250
453.64	180.850
454.00	184.150
454.36	180.350
454.72	181.200
455.09	181.750
455.45	180.300
455.81	179.550
456.17	179.850
456.54	182.000
456.90	180.150
457.26	181.900
457.62	180.850
457.98	179.300
458.35	179.950
458.71	179.900
459.07	181.000
459.43	181.150
459.79	180.350
460.16	181.250
460.52	179.400
460.88	181.250
461.24	180.700
461.60	180.100
461.96	182.100
462.33	180.750
462.69	181.000
463.05	179.700
463.41	181.500
463.77	182.750
464.13	180.550
464.49	182.650
464.86	179.900
465.22	183.150
465.58	179.900
465.94	179.850
466.30	181.350
466.66	182.200
467.02	180.400
467.38	180.600
467.75	181.800
468.11	182.550
468.47	183.250
468.83	181.450
469.19	183.100
469.55	182.650
469.91	182.900
470.27	182.450
470.63	182.100
470.99	182.200
471.35	183.950
471.72	181.800
472.08	181.650
472.44	182.650
472.80	181.550
473.16	183.200
473.52	183.600
473.88	183.100
474.24	183.850
474.60	181.800
474.96	183.050
475.32	182.100
475.68	184.100
476.04	182.350
476.40	184.600
476.76	185.300
477.12	184.150
477.48	184.600
477.84	184.350
478.20	185.550
478.56	183.400
478.92	183.300
479.28	184.100
479.64	185.650
480.00	184.750
480.36	186.000
480.72	186.300
481.08	186.700
481.44	188.050
481.80	186.800
482.16	187.200
482.52	188.250
482.88	187.000
483.24	187.800
483.60	188.150
483.96	188.800
484.32	188.900
484.68	188.800
485.04	188.050
485.40	188.250
485.76	190.250
486.12	191.250
486.48	189.250
486.83	190.900
487.19	191.250
487.55	190.200
487.91	191.600
488.27	190.700
488.63	192.700
488.99	191.200
489.35	194.200
489.71	194.100
490.07	192.350
490.43	194.900
490.78	194.400
491.14	194.450
491.50	194.000
491.86	193.300
492.22	194.400
492.58	193.700
492.94	194.650
493.30	195.400
493.65	195.450
494.01	194.800
494.37	195.900
494.73	196.600
495.09	197.750
495.45	198.100
495.80	199.150
496.16	198.750
496.52	199.500
496.88	199.700
497.24	200.600
497.60	200.750
497.95	200.800
498.31	201.150
498.67	202.200
499.03	203.200
499.39	204.650
499.74	204.900
500.10	205.650
500.46	206.550
500.82	208.100
501.18	209.900
501.53	210.450
501.89	211.750
502.25	212.000
502.61	211.600
502.96	216.350
503.32	217.300
503.68	221.800
504.04	220.400
504.40	220.850
504.75	224.600
505.11	228.650
505.47	229.700
505.82	233.150
506.18	236.950
506.54	234.900
506.90	238.100
507.25	241.450
507.61	246.000
507.97	255.900
508.33	266.200
508.68	279.550
509.04	285.100
509.40	291.100
509.75	293.550
510.11	299.350
510.47	301.800
510.82	303.150
511.18	300.950
511.54	310.850
511.89	313.600
512.25	314.850
512.61	316.050
512.96	317.000
513.32	318.650
513.68	322.250
514.03	327.350
514.39	332.150
514.75	346.600
515.10	362.450
515.46	374.800
515.82	377.000
516.17	379.050
516.53	384.000
516.89	383.450
517.24	393.000
517.60	396.400
517.95	410.200
518.31	417.250
518.67	429.850
519.02	442.950
519.38	441.700
519.73	448.150
520.09	481.700
520.45	510.500
520.80	547.800
521.16	583.600
521.51	597.500
521.87	621.950
522.22	678.950
522.58	753.350
522.94	837.900
523.29	1079.750
523.65	1481.650
524.00	1835.600
524.36	2116.500
524.71	1905.350
525.07	1839.450
525.42	1818.050
525.78	1852.100
526.14	1895.250
526.49	2053.700
526.85	2229.250
527.20	2260.350
527.56	2471.300
527.91	2737.300
528.27	3132.050
528.62	3770.050
528.98	4068.300
529.33	4067.400
529.69	4067.300
530.04	4067.050
530.40	4067.400
530.75	4067.750
531.11	4066.750
531.46	4060.450
531.81	4059.750
532.17	4017.500
532.52	2441.900
532.88	2133.400
533.23	1908.900
533.59	1838.400
533.94	1721.950
534.30	1631.300
534.65	1535.050
535.01	1382.850
535.36	1307.150
535.71	1189.900
536.07	1040.150
536.42	862.750
536.78	778.550
537.13	708.350
537.48	694.200
537.84	660.400
538.19	584.500
538.55	578.350
538.90	537.750
539.25	512.400
539.61	475.700
539.96	441.050
540.32	394.600
540.67	374.200
541.02	359.700
541.38	340.800
541.73	335.000
542.08	317.150
542.44	307.450
542.79	296.350
543.15	288.300
543.50	285.900
543.85	277.950
544.21	277.500
544.56	266.250
544.91	255.350
545.27	250.300
545.62	243.900
545.97	239.850
546.32	234.050
546.68	229.700
547.03	225.900
547.38	223.050
547.74	219.000
548.09	216.000
548.44	212.050
548.80	209.600
549.15	205.150
549.50	202.500
549.85	203.100
550.21	197.900
550.56	196.550
550.91	195.000
551.26	193.650
551.62	193.150
551.97	191.600
552.32	190.900
552.67	186.800
553.03	187.900
553.38	188.700
553.73	185.000
554.08	185.000
554.44	181.900
554.79	180.800
555.14	182.250
555.49	179.650
555.85	179.100
556.20	176.500
556.55	177.450
556.90	175.100
557.25	173.050
557.61	174.800
557.96	173.650
558.31	174.050
558.66	173.450
559.01	172.850
559.36	171.850
559.72	171.350
560.07	172.550
560.42	170.400
560.77	170.750
561.12	169.600
561.47	169.000
561.83	167.950
562.18	168.850
562.53	168.750
562.88	167.950
563.23	168.800
563.58	167.500
563.93	167.700
564.28	168.450
564.64	167.650
564.99	166.800
565.34	167.250
565.69	169.200
566.04	165.200
566.39	164.600
566.74	164.150
567.09	165.700
567.44	166.500
567.79	164.850
568.14	164.650
568.50	163.150
568.85	163.650
569.20	163.250
569.55	162.950
569.90	162.550
570.25	162.500
570.60	162.400
570.95	163.000
571.30	161.550
571.65	161.750
572.00	161.600
572.35	161.650
572.70	161.150
573.05	160.700
573.40	161.050
573.75	161.550
574.10	161.400
574.45	162.150
574.80	162.400
575.15	161.100
575.50	162.950
575.85	160.600
576.20	160.550
576.55	158.650
576.90	161.250
577.25	161.900
577.60	161.000
577.95	161.150
578.30	161.850
578.65	161.950
579.00	160.300
579.35	161.750
579.70	160.100
580.05	159.650
580.40	161.150
580.74	161.000
581.09	160.350
581.44	160.350
581.79	161.400
582.14	160.350
582.49	161.200
582.84	159.700
583.19	159.550
583.54	160.250
583.89	160.200
584.24	158.500
584.58	159.950
584.93	158.950
585.28	159.800
585.63	159.900
585.98	159.950
586.33	157.750
586.68	159.400
587.03	159.950
587.37	157.900
587.72	157.350
588.07	157.650
588.42	157.050
588.77	158.150
589.12	157.200
589.46	157.650
589.81	158.050
590.16	157.150
590.51	156.950
590.86	157.100
591.21	157.600
591.55	158.350
591.90	156.750
592.25	157.600
592.60	157.500
592.95	155.700
593.29	156.200
593.64	155.550
593.99	156.600
594.34	155.950
594.68	157.050
595.03	155.350
595.38	157.100
595.73	155.650
596.07	155.550
596.42	155.350
596.77	156.050
597.12	155.000
597.46	156.000
597.81	156.750
598.16	156.050
598.51	156.550
598.85	156.500
599.20	154.900
599.55	154.050
599.90	155.250
600.24	153.950
600.59	155.050
600.94	154.250
601.28	155.350
601.63	155.150
601.98	153.150
602.32	155.200
602.67	155.050
603.02	154.700
603.36	155.100
603.71	153.450
604.06	155.300
604.40	155.900
604.75	155.750
605.10	154.750
605.44	155.300
605.79	153.900
606.14	155.200
606.48	155.350
606.83	155.500
607.17	155.800
607.52	156.450
607.87	158.800
608.21	159.700
608.56	160.250
608.90	168.250
609.25	171.700
609.60	172.750
609.94	170.900
610.29	168.950
610.63	165.300
610.98	164.250
611.33	164.500
611.67	164.450
612.02	163.350
612.36	164.250
612.71	163.300
613.05	163.900
613.40	164.800
613.74	164.250
614.09	165.800
614.44	166.900
614.78	169.500
615.13	175.800
615.47	180.850
615.82	187.850
616.16	195.050
616.51	201.750
616.85	203.750
617.20	208.150
617.54	215.350
617.89	218.800
618.23	228.450
618.58	243.100
618.92	265.800
619.27	292.250
619.61	328.850
619.96	357.050
620.30	383.350
620.64	393.900
620.99	389.000
621.33	375.650
621.68	352.300
622.02	332.250
622.37	319.500
622.71	313.650
623.06	313.550
623.40	320.050
623.74	330.050
624.09	332.400
624.43	330.300
624.78	317.300
625.12	296.000
625.46	278.150
625.81	257.550
626.15	241.900
626.50	230.850
626.84	220.550
627.18	221.100
627.53	223.100
627.87	225.250
628.21	230.750
628.56	234.950
628.90	236.300
629.25	232.250
629.59	231.650
629.93	222.700
630.28	216.100
630.62	209.000
630.96	207.750
631.31	209.100
631.65	211.800
631.99	219.350
632.34	227.400
632.68	238.600
633.02	248.000
633.36	253.950
633.71	254.850
634.05	252.550
634.39	245.700
634.74	239.000
635.08	235.300
635.42	231.650
635.76	235.850
636.11	238.250
636.45	249.600
636.79	261.600
637.14	274.650
637.48	286.600
637.82	291.200
638.16	293.600
638.50	285.700
638.85	275.550
639.19	265.450
639.53	256.000
639.87	248.950
640.22	244.950
640.56	248.300
640.90	253.850
641.24	259.350
641.58	267.100
641.93	269.300
642.27	269.750
642.61	263.550
642.95	253.700
643.29	239.950
643.64	229.950
643.98	219.000
644.32	214.700
644.66	210.000
645.00	208.400
645.34	210.900
645.68	211.250
646.03	210.700
646.37	207.400
646.71	204.200
647.05	200.750
647.39	191.900
647.73	187.250
648.07	182.250
648.42	179.450
648.76	175.850
649.10	175.750
649.44	175.250
649.78	174.450
650.12	174.900
650.46	173.150
650.80	171.150
651.14	171.500
651.48	168.950
651.82	167.150
652.16	166.950
652.51	162.700
652.85	161.450
653.19	162.100
653.53	163.350
653.87	162.650
654.21	163.000
654.55	163.450
654.89	162.550
655.23	163.000
655.57	162.000
655.91	161.600
656.25	161.400
656.59	158.600
656.93	158.950
657.27	158.450
657.61	161.500
657.95	159.700
658.29	158.850
658.63	159.150
658.97	159.400
659.31	159.350
659.65	157.150
659.99	156.850
660.33	157.250
660.67	155.450
661.01	155.450
661.35	155.250
661.68	156.300
662.02	153.750
662.36	153.750
662.70	154.300
663.04	153.600
663.38	154.300
663.72	153.650
664.06	153.750
664.40	152.500
664.74	153.050
665.08	151.450
665.42	152.550
665.75	150.550
666.09	150.700
666.43	153.550
666.77	151.000
667.11	149.900
667.45	151.250
667.79	150.800
668.12	149.100
668.46	151.450
668.80	149.700
669.14	149.850
669.48	150.750
669.82	149.850
670.16	150.000
670.49	149.450
670.83	148.450
671.17	149.300
671.51	149.700
671.85	149.500
672.18	149.450
672.52	149.500
672.86	149.950
673.20	149.300
673.54	150.450
673.87	148.750
674.21	149.950
674.55	148.700
674.89	150.100
675.22	149.450
675.56	149.950
675.90	150.050
676.24	148.800
676.57	147.950
676.91	149.950
677.25	148.450
677.59	148.300
677.92	148.100
678.26	148.600
678.60	149.550
678.93	149.300
679.27	148.100
679.61	148.250
679.95	147.800
680.28	148.950
680.62	149.100
680.96	148.350
681.29	148.100
681.63	149.000
681.97	147.900
682.30	148.600
682.64	148.750
682.98	148.050
683.31	149.000
683.65	148.100
683.99	148.050
684.32	149.400
684.66	148.250
685.00	147.750
685.33	148.650
685.67	148.500
686.00	147.800
686.34	148.200
686.68	149.400
687.01	148.500
687.35	146.750
687.68	148.600
688.02	147.400
688.36	147.750
688.69	147.800
689.03	148.250
689.36	147.950
689.70	146.750
690.03	147.900
690.37	147.250
690.71	148.050
691.04	147.700
691.38	148.350
691.71	147.950
692.05	148.400
692.38	147.850
692.72	147.650
693.05	147.750
693.39	147.150
693.72	147.000
694.06	147.350
694.39	147.400
694.73	147.550
695.06	146.050
695.40	147.350
695.73	146.700
696.07	148.950
696.40	147.650
696.74	148.600
697.07	147.600
697.41	146.200
697.74	148.450
698.08	147.850
698.41	147.900
698.74	147.550
699.08	147.350
699.41	148.150
699.75	147.100
700.08	148.050
700.42	147.550
700.75	147.100
701.08	147.900
701.42	146.650
701.75	147.150
702.09	147.450
702.42	148.900
702.75	148.500
703.09	147.450
703.42	146.550
703.75	146.050
704.09	146.950
704.42	147.850
704.76	147.700
705.09	146.300
705.42	147.700
705.76	148.950
706.09	147.150
706.42	149.100
706.76	149.650
707.09	147.150
707.42	147.700
707.76	147.750
708.09	148.050
708.42	148.250
708.75	149.000
709.09	146.300
709.42	147.500
709.75	147.650
710.09	148.100
710.42	148.200
710.75	146.600
711.08	148.300
711.42	148.600
711.75	147.150
712.08	147.450
712.41	146.550
712.75	147.850
713.08	147.650
713.41	146.800
713.74	147.600
714.08	146.600
714.41	146.900
714.74	146.400
715.07	147.300
715.41	147.100
715.74	148.400
716.07	147.150
716.40	148.400
716.73	147.250
717.06	146.050
717.40	147.450
717.73	146.950
718.06	148.050
718.39	148.500
718.72	147.650
719.05	147.050
719.39	146.550
719.72	147.400
720.05	146.900
720.38	148.150
720.71	146.350
721.04	147.000
721.37	146.600
721.71	146.400
722.04	147.200
722.37	147.750
722.70	148.000
723.03	147.550
723.36	146.700
723.69	146.150
724.02	145.800
724.35	146.600
724.68	147.200
725.01	146.300
725.35	147.150
725.68	147.900
726.01	147.550
726.34	148.550
726.67	147.750
727.00	147.750
727.33	147.650
727.66	147.100
727.99	147.200
728.32	147.250
728.65	147.650
728.98	147.700
729.31	147.050
729.64	146.150
729.97	146.050
730.30	146.500
730.63	146.600
730.96	147.050
731.29	146.150
731.62	147.600
731.95	148.150
732.28	148.000
732.61	148.150
732.94	148.350
733.27	147.000
733.60	146.550
733.93	145.850
734.25	146.650
734.58	147.300
734.91	146.600
735.24	146.850
735.57	147.450
735.90	146.850
736.23	147.050
736.56	147.200
736.89	148.200
737.22	146.300
737.55	146.900
737.87	148.600
738.20	147.150
738.53	146.900
738.86	148.000
739.19	146.500
739.52	147.850
739.85	146.900
740.17	147.350
740.50	146.600
740.83	147.700
741.16	148.200
741.49	147.700
741.82	146.950
742.14	146.500
742.47	147.700
742.80	146.950
743.13	146.350
743.46	146.950
743.78	147.600
744.11	146.200
744.44	146.550
744.77	148.450
745.10	147.900
745.42	147.750
745.75	147.950
746.08	146.550
746.41	146.200
746.73	147.050
747.06	148.300
747.39	146.100
747.72	145.150
748.04	146.200
748.37	147.650
748.70	145.600
749.02	147.350
749.35	147.800
749.68	146.100
750.01	147.250
750.33	148.600
750.66	147.050
750.99	147.650
751.31	146.850
751.64	146.200
751.97	146.300
752.29	148.300
752.62	146.550
752.95	147.400
753.27	147.250
753.60	148.550
753.93	147.500
754.25	146.100
754.58	146.300
754.91	146.200
755.23	148.100
755.56	149.150
755.88	147.450
756.21	147.350
756.54	146.400
756.86	146.250
757.19	146.700
757.51	147.150
757.84	147.250
758.17	147.550
758.49	146.350
758.82	147.250
759.14	146.700
759.47	147.550
759.79	146.700
760.12	147.050
760.44	146.250
760.77	148.050
761.09	147.250
761.42	147.150
761.75	147.050
762.07	146.600
762.40	148.000
762.72	146.600
763.05	148.550
763.37	146.900
763.70	145.350
764.02	147.800
764.35	146.750
764.67	146.600
764.99	146.850
765.32	146.600
765.64	145.950
765.97	147.400
766.29	147.800
766.62	146.250
766.94	148.200
767.27	147.250
767.59	147.200
767.91	147.450
768.24	148.000
768.56	145.900
768.89	147.550
769.21	148.950
769.54	149.450
769.86	149.600
770.18	149.300
770.51	147.500
770.83	146.800
771.15	147.250
771.48	145.800
771.80	147.050
772.13	147.300
772.45	146.500
772.77	146.600
773.10	146.500
773.42	147.500
773.74	146.750
774.07	146.350
774.39	147.300
774.71	146.150
775.04	147.550
775.36	146.600
775.68	146.600
776.01	145.850
776.33	147.050
776.65	146.300
776.97	145.000
777.30	148.650
777.62	147.450
777.94	146.500
778.26	146.050
778.59	145.600
778.91	146.450
779.23	147.350
779.55	147.050
779.88	147.100
780.20	146.850
780.52	146.300
780.84	144.650
781.17	145.400
781.49	146.000
781.81	146.150
782.13	146.200
782.45	147.700
782.78	146.600
783.10	147.000
783.42	146.550
783.74	146.300
784.06	146.350
784.39	145.200
784.71	147.250
785.03	147.400
785.35	147.650
785.67	146.900
785.99	146.000
786.31	146.400
786.64	147.750
786.96	147.200
787.28	146.150
787.60	146.700
787.92	147.000
788.24	146.650
788.56	146.850
788.88	146.650
789.20	151.300
789.53	147.800
789.85	146.500
790.17	146.250
790.49	146.500
790.81	145.800
791.13	146.600
791.45	146.800
