OOIBase32 Version 2.0.6.5 Data File
++++++++++++++++++++++++++++++++++++
Date: 03-26-2021, 17:45:12
User: Valued Ocean Optics Customer
Spectrometer Serial Number: USB2E5007
Spectrometer Channel: Master
Integration Time (msec): 45
Spectra Averaged: 20
Boxcar Smoothing: 0
Correct for Electrical Dark: Disabled
Time Normalized: Disabled
Dual-beam Reference: Disabled
Reference Channel: Master
Temperature: Not acquired
Spectrometer Type: S2000
ADC Type: USB2000
Number of Pixels in File: 2048
Graph Title: 
>>>>>Begin Spectral Data<<<<<
340.15	0.000
340.52	156.150
340.90	157.950
341.27	158.500
341.64	161.050
342.01	165.400
342.38	165.500
342.76	166.550
343.13	166.600
343.50	167.100
343.87	166.250
344.24	166.850
344.61	168.350
344.98	166.400
345.36	166.650
345.73	168.150
346.10	167.200
346.47	168.500
346.84	165.600
347.21	167.450
347.58	164.950
347.96	170.300
348.33	166.250
348.70	166.150
349.07	167.450
349.44	168.400
349.81	170.700
350.18	169.600
350.55	168.650
350.92	169.450
351.30	168.450
351.67	168.850
352.04	167.600
352.41	169.100
352.78	169.700
353.15	168.700
353.52	168.400
353.89	170.350
354.26	168.900
354.63	170.100
355.00	170.500
355.37	170.450
355.75	168.950
356.12	168.100
356.49	171.350
356.86	170.650
357.23	170.550
357.60	169.950
357.97	169.900
358.34	170.350
358.71	171.500
359.08	169.000
359.45	169.550
359.82	172.100
360.19	171.600
360.56	170.850
360.93	171.550
361.30	170.400
361.67	169.050
362.04	171.450
362.41	170.450
362.78	171.000
363.15	172.150
363.52	172.000
363.89	170.600
364.26	169.600
364.63	170.450
365.00	171.800
365.37	171.200
365.74	171.300
366.11	171.450
366.48	171.950
366.85	171.450
367.22	171.050
367.59	173.400
367.96	172.100
368.33	171.900
368.70	173.350
369.07	172.000
369.44	172.250
369.81	171.650
370.18	172.200
370.55	171.200
370.92	171.850
371.29	172.550
371.66	172.650
372.03	171.600
372.40	173.950
372.77	172.450
373.13	172.100
373.50	173.600
373.87	172.000
374.24	172.700
374.61	172.250
374.98	172.250
375.35	172.450
375.72	173.150
376.09	172.450
376.46	172.500
376.83	173.400
377.20	173.600
377.56	172.450
377.93	173.450
378.30	173.600
378.67	174.200
379.04	174.100
379.41	173.700
379.78	174.300
380.15	175.950
380.51	173.900
380.88	173.050
381.25	172.950
381.62	174.550
381.99	172.050
382.36	173.450
382.73	172.950
383.09	174.500
383.46	175.400
383.83	173.900
384.20	174.200
384.57	175.650
384.94	173.700
385.31	173.850
385.67	173.800
386.04	173.650
386.41	175.000
386.78	173.650
387.15	175.700
387.51	174.400
387.88	175.600
388.25	173.450
388.62	174.250
388.99	175.400
389.36	174.850
389.72	176.100
390.09	181.000
390.46	175.500
390.83	175.750
391.19	174.600
391.56	175.150
391.93	174.700
392.30	175.600
392.67	176.300
393.03	173.450
393.40	176.650
393.77	174.550
394.14	176.050
394.50	176.000
394.87	176.650
395.24	175.800
395.61	173.600
395.97	176.900
396.34	175.350
396.71	174.300
397.08	178.000
397.44	175.250
397.81	176.550
398.18	176.250
398.55	176.750
398.91	175.100
399.28	175.950
399.65	176.750
400.01	177.750
400.38	177.050
400.75	175.850
401.12	175.350
401.48	175.900
401.85	176.150
402.22	176.550
402.58	177.150
402.95	179.600
403.32	177.650
403.68	177.150
404.05	177.200
404.42	177.550
404.78	178.500
405.15	177.400
405.52	177.950
405.88	176.950
406.25	176.300
406.62	176.050
406.98	175.700
407.35	175.600
407.72	177.100
408.08	177.900
408.45	178.000
408.82	175.950
409.18	177.300
409.55	177.900
409.91	178.500
410.28	178.100
410.65	176.650
411.01	177.050
411.38	176.900
411.75	176.400
412.11	177.900
412.48	178.600
412.84	179.550
413.21	178.100
413.58	178.000
413.94	177.300
414.31	177.550
414.67	177.950
415.04	177.400
415.41	178.500
415.77	179.950
416.14	176.450
416.50	178.650
416.87	178.250
417.23	177.350
417.60	179.750
417.97	177.950
418.33	178.600
418.70	180.050
419.06	181.350
419.43	179.900
419.79	176.800
420.16	177.900
420.52	178.550
420.89	178.400
421.25	179.800
421.62	178.450
421.98	178.200
422.35	178.550
422.72	178.450
423.08	179.550
423.45	180.500
423.81	178.750
424.18	178.700
424.54	177.500
424.91	179.200
425.27	181.200
425.64	180.300
426.00	180.450
426.37	179.850
426.73	178.100
427.09	180.900
427.46	179.200
427.82	180.900
428.19	179.500
428.55	180.450
428.92	179.700
429.28	179.750
429.65	179.550
430.01	180.450
430.38	180.300
430.74	179.050
431.11	182.000
431.47	180.800
431.83	180.300
432.20	179.000
432.56	181.100
432.93	179.500
433.29	181.600
433.66	184.750
434.02	185.800
434.38	185.450
434.75	180.800
435.11	180.900
435.48	179.750
435.84	178.650
436.20	180.100
436.57	179.500
436.93	181.500
437.30	179.600
437.66	181.700
438.02	180.000
438.39	179.300
438.75	179.700
439.12	181.400
439.48	180.950
439.84	182.300
440.21	179.750
440.57	179.550
440.93	180.800
441.30	177.750
441.66	180.200
442.02	178.550
442.39	180.200
442.75	181.050
443.11	179.750
443.48	180.500
443.84	180.650
444.20	180.050
444.57	181.000
444.93	180.200
445.29	181.800
445.66	179.600
446.02	181.000
446.38	181.050
446.75	181.700
447.11	179.850
447.47	180.500
447.84	179.100
448.20	181.900
448.56	180.350
448.92	181.750
449.29	182.050
449.65	180.400
450.01	181.650
450.37	180.650
450.74	178.950
451.10	178.750
451.46	179.500
451.83	181.700
452.19	183.350
452.55	179.800
452.91	179.600
453.28	180.550
453.64	179.700
454.00	182.800
454.36	180.950
454.72	180.500
455.09	180.500
455.45	180.800
455.81	180.850
456.17	181.600
456.54	182.400
456.90	180.050
457.26	181.750
457.62	181.100
457.98	180.400
458.35	180.150
458.71	180.650
459.07	180.600
459.43	182.250
459.79	177.450
460.16	179.300
460.52	179.650
460.88	180.700
461.24	180.250
461.60	180.350
461.96	180.450
462.33	181.100
462.69	181.950
463.05	180.700
463.41	180.000
463.77	181.050
464.13	180.700
464.49	181.800
464.86	180.550
465.22	180.300
465.58	182.250
465.94	179.900
466.30	181.850
466.66	182.400
467.02	180.900
467.38	181.800
467.75	182.650
468.11	183.850
468.47	183.550
468.83	183.500
469.19	182.600
469.55	182.200
469.91	179.850
470.27	181.900
470.63	180.700
470.99	182.550
471.35	183.800
471.72	182.950
472.08	180.850
472.44	182.500
472.80	182.650
473.16	181.750
473.52	184.650
473.88	184.250
474.24	183.000
474.60	183.000
474.96	184.950
475.32	182.550
475.68	184.000
476.04	183.350
476.40	183.100
476.76	182.900
477.12	183.700
477.48	184.450
477.84	184.600
478.20	184.300
478.56	184.250
478.92	184.100
479.28	185.350
479.64	187.350
480.00	184.850
480.36	185.750
480.72	186.400
481.08	186.200
481.44	188.300
481.80	186.800
482.16	186.250
482.52	187.050
482.88	187.800
483.24	185.450
483.60	185.350
483.96	188.500
484.32	188.700
484.68	188.700
485.04	188.500
485.40	187.800
485.76	189.200
486.12	190.550
486.48	188.700
486.83	190.400
487.19	191.050
487.55	190.150
487.91	191.650
488.27	191.150
488.63	192.000
488.99	191.900
489.35	193.050
489.71	190.850
490.07	193.400
490.43	192.600
490.78	193.450
491.14	194.100
491.50	193.550
491.86	193.850
492.22	192.950
492.58	194.050
492.94	194.500
493.30	194.200
493.65	195.250
494.01	196.700
494.37	198.650
494.73	197.200
495.09	198.100
495.45	198.450
495.80	200.700
496.16	200.200
496.52	200.650
496.88	200.150
497.24	200.150
497.60	202.050
497.95	199.550
498.31	201.900
498.67	203.050
499.03	204.900
499.39	205.300
499.74	204.900
500.10	206.200
500.46	207.600
500.82	209.050
501.18	211.400
501.53	210.000
501.89	212.700
502.25	213.750
502.61	212.600
502.96	216.850
503.32	219.300
503.68	221.250
504.04	220.850
504.40	222.000
504.75	224.500
505.11	227.300
505.47	230.200
505.82	233.400
506.18	235.100
506.54	236.300
506.90	239.200
507.25	243.400
507.61	250.400
507.97	257.350
508.33	264.350
508.68	274.950
509.04	283.850
509.40	291.250
509.75	293.300
510.11	296.950
510.47	298.550
510.82	304.850
511.18	303.900
511.54	307.750
511.89	317.900
512.25	316.600
512.61	319.750
512.96	318.950
513.32	318.950
513.68	322.250
514.03	325.450
514.39	332.600
514.75	343.350
515.10	364.250
515.46	376.250
515.82	377.100
516.17	384.800
516.53	382.250
516.89	383.400
517.24	391.800
517.60	402.300
517.95	406.600
518.31	417.900
518.67	440.000
519.02	435.850
519.38	440.200
519.73	458.000
520.09	473.450
520.45	496.400
520.80	540.250
521.16	566.500
521.51	599.600
521.87	643.500
522.22	666.800
522.58	726.000
522.94	793.550
523.29	1062.700
523.65	1511.450
524.00	1900.250
524.36	2033.200
524.71	1896.200
525.07	1824.250
525.42	1862.500
525.78	1861.650
526.14	1885.550
526.49	2037.600
526.85	2223.500
527.20	2196.650
527.56	2405.250
527.91	2752.700
528.27	3071.950
528.62	3885.700
528.98	4066.150
529.33	4067.000
529.69	4067.500
530.04	4067.000
530.40	4067.300
530.75	4065.850
531.11	4066.400
531.46	4058.500
531.81	4059.400
532.17	3987.150
532.52	2443.650
532.88	2137.700
533.23	2023.050
533.59	1910.550
533.94	1690.250
534.30	1626.050
534.65	1541.900
535.01	1463.350
535.36	1317.700
535.71	1213.250
536.07	1053.300
536.42	917.300
536.78	778.400
537.13	730.300
537.48	692.300
537.84	662.750
538.19	588.300
538.55	569.850
538.90	556.000
539.25	512.250
539.61	482.400
539.96	437.250
540.32	399.000
540.67	374.850
541.02	362.450
541.38	345.200
541.73	329.800
542.08	312.100
542.44	301.200
542.79	301.400
543.15	294.050
543.50	287.950
543.85	281.050
544.21	273.800
544.56	263.100
544.91	257.100
545.27	248.150
545.62	243.300
545.97	240.150
546.32	232.750
546.68	229.450
547.03	224.650
547.38	222.300
547.74	218.900
548.09	217.950
548.44	211.900
548.80	210.650
549.15	206.400
549.50	203.250
549.85	201.700
550.21	198.400
550.56	196.250
550.91	195.950
551.26	195.050
551.62	193.150
551.97	193.300
552.32	190.550
552.67	187.300
553.03	186.600
553.38	184.400
553.73	184.650
554.08	184.250
554.44	180.550
554.79	181.000
555.14	179.950
555.49	177.350
555.85	178.350
556.20	176.500
556.55	175.850
556.90	175.100
557.25	174.900
557.61	173.900
557.96	173.500
558.31	172.100
558.66	171.700
559.01	173.850
559.36	169.950
559.72	170.500
560.07	169.400
560.42	169.500
560.77	169.300
561.12	168.500
561.47	169.100
561.83	167.250
562.18	168.300
562.53	167.550
562.88	168.350
563.23	168.950
563.58	168.450
563.93	167.600
564.28	168.950
564.64	165.800
564.99	166.750
565.34	165.350
565.69	168.050
566.04	166.150
566.39	164.850
566.74	164.600
567.09	164.600
567.44	166.300
567.79	164.850
568.14	164.350
568.50	164.050
568.85	164.650
569.20	162.900
569.55	163.400
569.90	163.450
570.25	162.450
570.60	162.350
570.95	161.750
571.30	162.300
571.65	160.800
572.00	160.650
572.35	161.250
572.70	161.500
573.05	160.750
573.40	160.750
573.75	161.600
574.10	158.850
574.45	160.650
574.80	161.900
575.15	160.750
575.50	161.350
575.85	159.800
576.20	160.400
576.55	158.350
576.90	161.300
577.25	160.850
577.60	160.350
577.95	160.300
578.30	161.450
578.65	160.000
579.00	158.900
579.35	159.800
579.70	159.900
580.05	159.500
580.40	161.050
580.74	161.150
581.09	160.900
581.44	160.650
581.79	160.750
582.14	160.000
582.49	159.900
582.84	159.000
583.19	157.450
583.54	160.350
583.89	159.850
584.24	158.300
584.58	160.350
584.93	159.100
585.28	159.400
585.63	157.600
585.98	158.500
586.33	158.400
586.68	158.000
587.03	159.150
587.37	157.600
587.72	157.050
588.07	157.200
588.42	156.900
588.77	155.450
589.12	156.800
589.46	157.000
589.81	158.050
590.16	156.950
590.51	156.850
590.86	157.400
591.21	155.950
591.55	157.300
591.90	156.650
592.25	156.300
592.60	156.650
592.95	156.050
593.29	155.950
593.64	156.100
593.99	156.650
594.34	154.900
594.68	155.800
595.03	155.650
595.38	156.150
595.73	155.500
596.07	155.050
596.42	155.750
596.77	154.950
597.12	155.600
597.46	154.700
597.81	155.300
598.16	156.250
598.51	156.900
598.85	155.250
599.20	154.500
599.55	154.300
599.90	154.200
600.24	153.450
600.59	153.750
600.94	153.350
601.28	153.750
601.63	154.350
601.98	153.950
602.32	154.650
602.67	155.400
603.02	154.950
603.36	156.800
603.71	155.150
604.06	155.400
604.40	154.650
604.75	156.100
605.10	155.250
605.44	157.050
605.79	155.000
606.14	156.350
606.48	156.350
606.83	156.050
607.17	156.600
607.52	156.700
607.87	159.700
608.21	159.600
608.56	162.400
608.90	168.850
609.25	172.150
609.60	174.900
609.94	170.950
610.29	171.200
610.63	168.900
610.98	168.200
611.33	169.700
611.67	169.400
612.02	170.650
612.36	170.850
612.71	173.250
613.05	172.600
613.40	175.250
613.74	174.100
614.09	175.300
614.44	176.250
614.78	179.650
615.13	186.000
615.47	193.100
615.82	204.550
616.16	215.050
616.51	224.500
616.85	229.750
617.20	233.800
617.54	238.950
617.89	241.050
618.23	244.100
618.58	252.950
618.92	264.800
619.27	289.400
619.61	319.350
619.96	354.000
620.30	391.050
620.64	422.300
620.99	442.350
621.33	443.800
621.68	432.500
622.02	417.500
622.37	403.150
622.71	387.350
623.06	385.200
623.40	387.850
623.74	407.250
624.09	422.550
624.43	439.050
624.78	436.800
625.12	424.000
625.46	399.900
625.81	365.200
626.15	330.750
626.50	302.450
626.84	276.850
627.18	263.050
627.53	253.250
627.87	250.850
628.21	254.100
628.56	259.050
628.90	262.600
629.25	261.100
629.59	258.650
629.93	251.250
630.28	240.300
630.62	227.700
630.96	219.450
631.31	211.800
631.65	209.150
631.99	208.700
632.34	212.300
632.68	219.100
633.02	226.500
633.36	232.750
633.71	236.700
634.05	237.050
634.39	234.050
634.74	227.500
635.08	218.350
635.42	212.450
635.76	209.850
636.11	206.350
636.45	210.550
636.79	212.250
637.14	217.650
637.48	224.150
637.82	228.750
638.16	232.400
638.50	233.850
638.85	229.600
639.19	226.100
639.53	217.950
639.87	209.250
640.22	203.900
640.56	202.150
640.90	200.850
641.24	201.850
641.58	207.050
641.93	208.350
642.27	211.850
642.61	213.050
642.95	210.000
643.29	203.200
643.64	197.800
643.98	192.750
644.32	185.500
644.66	183.500
645.00	179.450
645.34	181.100
645.68	179.350
646.03	180.700
646.37	179.550
646.71	180.800
647.05	178.550
647.39	176.650
647.73	173.550
648.07	169.850
648.42	167.850
648.76	165.550
649.10	165.300
649.44	165.600
649.78	162.500
650.12	164.800
650.46	163.100
650.80	163.400
651.14	165.600
651.48	163.300
651.82	161.950
652.16	161.750
652.51	159.500
652.85	156.800
653.19	158.500
653.53	158.700
653.87	157.250
654.21	158.550
654.55	158.850
654.89	158.450
655.23	159.600
655.57	159.400
655.91	157.900
656.25	158.450
656.59	156.600
656.93	156.400
657.27	153.900
657.61	157.100
657.95	154.900
658.29	154.450
658.63	156.400
658.97	157.400
659.31	157.450
659.65	155.600
659.99	156.600
660.33	155.100
660.67	153.350
661.01	154.350
661.35	152.000
661.68	153.300
662.02	151.350
662.36	150.750
662.70	152.700
663.04	152.350
663.38	153.000
663.72	151.900
664.06	152.250
664.40	150.600
664.74	151.750
665.08	151.500
665.42	150.750
665.75	150.000
666.09	149.050
666.43	152.600
666.77	149.950
667.11	149.500
667.45	150.350
667.79	150.100
668.12	149.400
668.46	149.100
668.80	148.050
669.14	149.150
669.48	149.000
669.82	149.000
670.16	150.100
670.49	147.900
670.83	147.750
671.17	147.850
671.51	148.500
671.85	147.900
672.18	148.350
672.52	148.250
672.86	148.950
673.20	149.650
673.54	150.150
673.87	149.750
674.21	149.950
674.55	148.650
674.89	147.300
675.22	147.600
675.56	148.300
675.90	149.500
676.24	148.650
676.57	148.750
676.91	148.150
677.25	148.150
677.59	148.500
677.92	146.900
678.26	148.050
678.60	149.650
678.93	149.050
679.27	148.200
679.61	148.100
679.95	146.850
680.28	147.750
680.62	147.500
680.96	147.800
681.29	147.700
681.63	148.350
681.97	148.050
682.30	148.000
682.64	146.550
682.98	147.450
683.31	148.300
683.65	148.650
683.99	147.000
684.32	148.400
684.66	147.700
685.00	148.250
685.33	147.250
685.67	147.450
686.00	147.200
686.34	147.300
686.68	150.800
687.01	147.250
687.35	147.350
687.68	148.500
688.02	147.100
688.36	147.600
688.69	147.150
689.03	146.950
689.36	148.000
689.70	145.950
690.03	147.300
690.37	146.350
690.71	146.700
691.04	146.450
691.38	147.750
691.71	148.250
692.05	146.800
692.38	147.600
692.72	147.450
693.05	147.950
693.39	146.100
693.72	146.600
694.06	147.900
694.39	147.450
694.73	146.500
695.06	147.100
695.40	147.400
695.73	147.450
696.07	147.300
696.40	147.250
696.74	149.350
697.07	146.900
697.41	146.700
697.74	148.800
698.08	146.250
698.41	147.600
698.74	148.450
699.08	146.800
699.41	146.900
699.75	147.450
700.08	146.450
700.42	146.300
700.75	147.800
701.08	147.100
701.42	146.400
701.75	146.700
702.09	147.650
702.42	148.900
702.75	147.050
703.09	146.950
703.42	146.350
703.75	147.050
704.09	146.650
704.42	147.050
704.76	147.850
705.09	147.350
705.42	146.050
705.76	148.250
706.09	145.900
706.42	149.200
706.76	148.150
707.09	146.400
707.42	147.300
707.76	146.950
708.09	146.250
708.42	146.400
708.75	148.600
709.09	147.450
709.42	146.900
709.75	146.850
710.09	147.300
710.42	147.450
710.75	146.650
711.08	147.700
711.42	148.350
711.75	147.100
712.08	146.000
712.41	146.950
712.75	147.700
713.08	146.800
713.41	148.400
713.74	146.500
714.08	147.000
714.41	147.850
714.74	147.000
715.07	147.900
715.41	146.750
715.74	147.550
716.07	147.500
716.40	146.550
716.73	147.350
717.06	146.900
717.40	146.550
717.73	145.450
718.06	146.600
718.39	147.650
718.72	146.650
719.05	145.550
719.39	145.650
719.72	147.200
720.05	146.800
720.38	147.750
720.71	145.750
721.04	146.900
721.37	146.500
721.71	146.550
722.04	145.600
722.37	146.050
722.70	146.900
723.03	146.950
723.36	145.450
723.69	145.200
724.02	147.250
724.35	146.700
724.68	146.750
725.01	146.200
725.35	146.500
725.68	146.050
726.01	146.950
726.34	147.150
726.67	145.850
727.00	146.800
727.33	146.450
727.66	148.000
727.99	146.200
728.32	146.900
728.65	146.500
728.98	146.850
729.31	146.250
729.64	146.650
729.97	145.650
730.30	146.300
730.63	147.300
730.96	145.950
731.29	146.400
731.62	145.300
731.95	147.800
732.28	147.150
732.61	147.200
732.94	146.450
733.27	146.350
733.60	147.050
733.93	145.200
734.25	145.800
734.58	146.300
734.91	147.100
735.24	146.850
735.57	147.300
735.90	146.300
736.23	146.250
736.56	145.600
736.89	145.750
737.22	146.650
737.55	147.400
737.87	147.250
738.20	146.150
738.53	146.250
738.86	145.950
739.19	146.200
739.52	148.250
739.85	146.700
740.17	146.900
740.50	146.450
740.83	146.450
741.16	146.000
741.49	147.450
741.82	147.700
742.14	147.150
742.47	145.950
742.80	147.700
743.13	145.950
743.46	146.100
743.78	146.900
744.11	146.900
744.44	146.000
744.77	146.600
745.10	145.900
745.42	147.250
745.75	145.200
746.08	146.300
746.41	146.400
746.73	146.050
747.06	146.800
747.39	146.000
747.72	146.550
748.04	146.300
748.37	147.150
748.70	145.900
749.02	146.400
749.35	147.150
749.68	146.400
750.01	147.500
750.33	147.650
750.66	146.450
750.99	147.250
751.31	145.950
751.64	145.800
751.97	145.950
752.29	148.100
752.62	146.050
752.95	147.350
753.27	147.500
753.60	146.900
753.93	147.200
754.25	145.850
754.58	146.500
754.91	148.000
755.23	148.200
755.56	150.500
755.88	147.750
756.21	146.600
756.54	146.150
756.86	146.400
757.19	145.600
757.51	146.100
757.84	146.150
758.17	147.050
758.49	146.100
758.82	145.850
759.14	146.800
759.47	145.850
759.79	147.450
760.12	145.800
760.44	146.500
760.77	146.250
761.09	146.150
761.42	147.100
761.75	147.550
762.07	146.700
762.40	146.650
762.72	146.750
763.05	147.700
763.37	147.050
763.70	146.300
764.02	146.750
764.35	144.800
764.67	145.350
764.99	146.100
765.32	145.600
765.64	146.150
765.97	145.750
766.29	146.450
766.62	145.950
766.94	147.700
767.27	145.950
767.59	146.550
767.91	146.750
768.24	146.850
768.56	146.950
768.89	147.800
769.21	148.700
769.54	149.400
769.86	150.900
770.18	149.550
770.51	146.950
770.83	146.250
771.15	147.050
771.48	145.450
771.80	147.150
772.13	147.500
772.45	146.150
772.77	146.050
773.10	145.600
773.42	146.550
773.74	144.900
774.07	146.900
774.39	146.600
774.71	146.100
775.04	146.650
775.36	144.350
775.68	145.350
776.01	145.700
776.33	145.200
776.65	145.950
776.97	145.950
777.30	147.050
777.62	145.800
777.94	147.100
778.26	144.950
778.59	144.950
778.91	144.300
779.23	147.500
779.55	147.250
779.88	146.600
780.20	145.800
780.52	144.650
780.84	146.550
781.17	146.650
781.49	146.000
781.81	146.400
782.13	145.950
782.45	147.350
782.78	147.450
783.10	147.100
783.42	146.450
783.74	145.950
784.06	145.600
784.39	146.000
784.71	147.050
785.03	146.600
785.35	145.850
785.67	146.300
785.99	146.350
786.31	146.950
786.64	147.100
786.96	146.100
787.28	147.000
787.60	146.650
787.92	146.850
788.24	146.400
788.56	146.000
788.88	146.200
789.20	150.550
789.53	146.500
789.85	146.000
790.17	147.200
790.49	146.500
790.81	146.000
791.13	146.150
791.45	147.000
