OOIBase32 Version 2.0.6.5 Data File
++++++++++++++++++++++++++++++++++++
Date: 04-16-2021, 17:11:50
User: Valued Ocean Optics Customer
Spectrometer Serial Number: USB2E5007
Spectrometer Channel: Master
Integration Time (msec): 45
Spectra Averaged: 20
Boxcar Smoothing: 0
Correct for Electrical Dark: Disabled
Time Normalized: Disabled
Dual-beam Reference: Disabled
Reference Channel: Master
Temperature: Not acquired
Spectrometer Type: S2000
ADC Type: USB2000
Number of Pixels in File: 2048
Graph Title: 
>>>>>Begin Spectral Data<<<<<
340.15	0.000
340.52	129.500
340.90	132.550
341.27	133.000
341.64	135.300
342.01	137.150
342.38	137.750
342.76	139.550
343.13	140.550
343.50	140.400
343.87	139.750
344.24	140.500
344.61	140.950
344.98	140.000
345.36	140.100
345.73	141.250
346.10	139.300
346.47	141.350
346.84	139.550
347.21	139.100
347.58	139.750
347.96	143.350
348.33	139.050
348.70	139.650
349.07	141.050
349.44	139.550
349.81	143.800
350.18	140.200
350.55	139.950
350.92	139.950
351.30	139.850
351.67	140.300
352.04	139.950
352.41	139.800
352.78	142.300
353.15	142.300
353.52	140.050
353.89	141.950
354.26	141.050
354.63	140.500
355.00	141.050
355.37	141.750
355.75	140.800
356.12	139.900
356.49	141.600
356.86	142.150
357.23	142.250
357.60	141.450
357.97	141.100
358.34	140.500
358.71	143.300
359.08	141.500
359.45	141.500
359.82	143.000
360.19	143.000
360.56	142.550
360.93	142.900
361.30	142.350
361.67	141.550
362.04	142.700
362.41	143.000
362.78	141.600
363.15	143.000
363.52	142.900
363.89	141.800
364.26	140.850
364.63	141.300
365.00	142.050
365.37	142.200
365.74	142.250
366.11	142.450
366.48	143.800
366.85	142.400
367.22	143.650
367.59	144.400
367.96	142.450
368.33	142.350
368.70	143.800
369.07	142.800
369.44	142.900
369.81	143.850
370.18	144.100
370.55	143.050
370.92	143.900
371.29	142.300
371.66	143.450
372.03	144.400
372.40	144.050
372.77	144.700
373.13	143.350
373.50	144.800
373.87	143.650
374.24	143.300
374.61	144.350
374.98	143.700
375.35	144.100
375.72	145.000
376.09	145.050
376.46	144.200
376.83	143.100
377.20	143.200
377.56	143.950
377.93	144.400
378.30	144.550
378.67	144.400
379.04	144.000
379.41	144.200
379.78	144.500
380.15	145.900
380.51	145.150
380.88	144.050
381.25	144.000
381.62	146.450
381.99	143.650
382.36	143.650
382.73	144.950
383.09	145.400
383.46	145.100
383.83	144.600
384.20	144.450
384.57	144.950
384.94	145.650
385.31	145.550
385.67	144.350
386.04	143.350
386.41	144.450
386.78	144.000
387.15	145.100
387.51	145.250
387.88	145.750
388.25	144.700
388.62	145.050
388.99	144.850
389.36	144.650
389.72	144.100
390.09	147.850
390.46	145.400
390.83	144.350
391.19	144.850
391.56	145.500
391.93	145.050
392.30	145.500
392.67	146.500
393.03	145.400
393.40	145.650
393.77	145.650
394.14	146.250
394.50	145.750
394.87	145.600
395.24	144.850
395.61	144.550
395.97	145.300
396.34	144.950
396.71	146.050
397.08	146.500
397.44	146.050
397.81	147.100
398.18	146.150
398.55	146.800
398.91	146.350
399.28	146.300
399.65	146.550
400.01	148.200
400.38	144.600
400.75	144.950
401.12	146.650
401.48	144.900
401.85	147.500
402.22	145.050
402.58	146.350
402.95	147.300
403.32	146.800
403.68	145.450
404.05	145.600
404.42	145.900
404.78	147.300
405.15	146.800
405.52	147.200
405.88	145.500
406.25	144.700
406.62	145.300
406.98	146.450
407.35	145.600
407.72	145.800
408.08	146.150
408.45	146.650
408.82	146.200
409.18	146.100
409.55	146.500
409.91	146.700
410.28	146.350
410.65	146.550
411.01	146.550
411.38	144.700
411.75	145.950
412.11	146.050
412.48	145.550
412.84	147.150
413.21	144.950
413.58	146.500
413.94	146.500
414.31	146.750
414.67	147.450
415.04	146.400
415.41	145.750
415.77	147.000
416.14	146.650
416.50	146.850
416.87	146.800
417.23	147.050
417.60	147.750
417.97	146.300
418.33	147.500
418.70	147.750
419.06	148.050
419.43	147.850
419.79	148.550
420.16	147.450
420.52	148.150
420.89	148.650
421.25	149.050
421.62	148.450
421.98	148.550
422.35	148.250
422.72	148.300
423.08	149.250
423.45	150.950
423.81	150.000
424.18	149.950
424.54	149.350
424.91	151.400
425.27	152.100
425.64	151.900
426.00	151.800
426.37	152.800
426.73	152.900
427.09	155.350
427.46	154.550
427.82	157.150
428.19	155.100
428.55	157.400
428.92	157.500
429.28	158.950
429.65	157.850
430.01	162.500
430.38	160.350
430.74	160.700
431.11	162.500
431.47	165.900
431.83	165.550
432.20	167.250
432.56	169.750
432.93	170.550
433.29	172.400
433.66	175.250
434.02	180.350
434.38	178.300
434.75	179.300
435.11	179.050
435.48	181.350
435.84	182.050
436.20	186.400
436.57	187.650
436.93	192.600
437.30	193.500
437.66	194.350
438.02	201.750
438.39	204.650
438.75	205.650
439.12	213.000
439.48	215.950
439.84	219.300
440.21	220.050
440.57	224.450
440.93	236.750
441.30	236.550
441.66	243.000
442.02	249.700
442.39	250.250
442.75	256.600
443.11	259.100
443.48	267.500
443.84	275.400
444.20	275.550
444.57	296.650
444.93	303.700
445.29	321.650
445.66	319.700
446.02	332.200
446.38	354.250
446.75	363.550
447.11	376.150
447.47	374.550
447.84	391.350
448.20	418.400
448.56	440.000
448.92	454.450
449.29	465.400
449.65	475.000
450.01	496.350
450.37	498.450
450.74	524.650
451.10	549.350
451.46	571.150
451.83	561.550
452.19	582.500
452.55	575.150
452.91	612.950
453.28	628.550
453.64	652.750
454.00	657.900
454.36	614.300
454.72	665.450
455.09	653.900
455.45	667.550
455.81	657.800
456.17	649.750
456.54	649.850
456.90	654.050
457.26	618.300
457.62	623.550
457.98	624.700
458.35	622.000
458.71	587.500
459.07	579.350
459.43	553.950
459.79	547.250
460.16	515.200
460.52	504.000
460.88	499.200
461.24	494.700
461.60	482.600
461.96	479.550
462.33	459.350
462.69	439.800
463.05	424.000
463.41	420.100
463.77	412.850
464.13	395.400
464.49	400.150
464.86	385.200
465.22	377.350
465.58	372.600
465.94	374.750
466.30	361.400
466.66	367.250
467.02	364.700
467.38	354.950
467.75	348.900
468.11	344.150
468.47	343.250
468.83	342.050
469.19	341.050
469.55	339.750
469.91	330.650
470.27	318.850
470.63	323.050
470.99	322.600
471.35	314.900
471.72	314.500
472.08	312.600
472.44	305.550
472.80	298.900
473.16	299.300
473.52	293.000
473.88	286.200
474.24	284.400
474.60	281.300
474.96	275.100
475.32	272.400
475.68	267.700
476.04	265.800
476.40	260.250
476.76	256.300
477.12	250.700
477.48	248.000
477.84	247.700
478.20	243.450
478.56	238.750
478.92	233.500
479.28	230.200
479.64	229.200
480.00	226.450
480.36	224.800
480.72	219.650
481.08	221.100
481.44	219.600
481.80	213.350
482.16	213.900
482.52	211.450
482.88	210.050
483.24	209.350
483.60	209.900
483.96	207.850
484.32	206.350
484.68	203.500
485.04	203.500
485.40	201.050
485.76	198.850
486.12	198.900
486.48	198.700
486.83	197.050
487.19	194.550
487.55	192.700
487.91	193.700
488.27	190.600
488.63	189.950
488.99	187.800
489.35	189.900
489.71	184.850
490.07	183.500
490.43	182.350
490.78	182.300
491.14	181.400
491.50	179.650
491.86	177.700
492.22	175.300
492.58	174.950
492.94	172.900
493.30	172.850
493.65	171.600
494.01	170.950
494.37	171.150
494.73	166.800
495.09	168.300
495.45	166.800
495.80	165.550
496.16	164.550
496.52	164.400
496.88	163.350
497.24	163.450
497.60	163.450
497.95	161.150
498.31	160.950
498.67	159.200
499.03	160.800
499.39	158.400
499.74	158.750
500.10	156.700
500.46	156.700
500.82	157.300
501.18	158.850
501.53	156.550
501.89	156.450
502.25	156.000
502.61	154.100
502.96	156.000
503.32	154.200
503.68	155.400
504.04	156.050
504.40	153.650
504.75	154.050
505.11	152.500
505.47	152.600
505.82	153.500
506.18	152.550
506.54	151.300
506.90	152.200
507.25	150.950
507.61	152.750
507.97	152.350
508.33	150.950
508.68	149.900
509.04	151.700
509.40	150.450
509.75	150.200
510.11	151.850
510.47	150.850
510.82	150.900
511.18	148.550
511.54	149.350
511.89	148.950
512.25	149.150
512.61	148.900
512.96	148.600
513.32	148.150
513.68	148.500
514.03	150.050
514.39	148.150
514.75	147.250
515.10	149.150
515.46	148.600
515.82	147.250
516.17	148.250
516.53	147.950
516.89	147.800
517.24	145.900
517.60	146.100
517.95	146.650
518.31	146.600
518.67	148.350
519.02	147.200
519.38	148.500
519.73	146.850
520.09	146.850
520.45	146.150
520.80	146.500
521.16	146.100
521.51	146.500
521.87	145.750
522.22	145.650
522.58	146.250
522.94	146.550
523.29	145.950
523.65	145.450
524.00	147.800
524.36	146.850
524.71	146.350
525.07	144.900
525.42	145.550
525.78	146.650
526.14	146.300
526.49	146.400
526.85	146.450
527.20	146.950
527.56	147.050
527.91	145.700
528.27	146.100
528.62	146.200
528.98	145.450
529.33	145.450
529.69	144.700
530.04	144.050
530.40	144.300
530.75	145.650
531.11	145.500
531.46	146.900
531.81	145.600
532.17	146.550
532.52	146.700
532.88	144.800
533.23	145.150
533.59	146.450
533.94	145.150
534.30	144.700
534.65	144.600
535.01	145.250
535.36	147.200
535.71	145.250
536.07	146.600
536.42	146.650
536.78	146.250
537.13	146.300
537.48	146.700
537.84	146.150
538.19	147.800
538.55	148.200
538.90	149.750
539.25	151.950
539.61	152.800
539.96	154.050
540.32	153.900
540.67	152.300
541.02	152.600
541.38	151.200
541.73	152.400
542.08	151.050
542.44	150.500
542.79	149.950
543.15	150.300
543.50	152.350
543.85	155.800
544.21	156.700
544.56	156.100
544.91	155.800
545.27	152.600
545.62	149.900
545.97	149.650
546.32	149.750
546.68	148.700
547.03	147.750
547.38	150.000
547.74	147.350
548.09	146.950
548.44	145.950
548.80	146.400
549.15	146.250
549.50	144.450
549.85	147.200
550.21	146.700
550.56	146.800
550.91	145.700
551.26	143.900
551.62	145.150
551.97	145.000
552.32	144.650
552.67	144.350
553.03	144.900
553.38	145.900
553.73	145.650
554.08	145.500
554.44	143.700
554.79	144.750
555.14	145.100
555.49	144.550
555.85	144.100
556.20	143.300
556.55	144.000
556.90	143.450
557.25	143.350
557.61	144.700
557.96	145.300
558.31	143.850
558.66	143.200
559.01	144.900
559.36	143.600
559.72	143.950
560.07	144.100
560.42	143.650
560.77	144.950
561.12	144.400
561.47	144.450
561.83	142.900
562.18	145.000
562.53	144.150
562.88	143.450
563.23	145.200
563.58	144.600
563.93	143.450
564.28	145.250
564.64	143.250
564.99	143.050
565.34	142.850
565.69	146.350
566.04	143.550
566.39	143.800
566.74	143.850
567.09	144.750
567.44	145.300
567.79	144.000
568.14	143.650
568.50	143.300
568.85	142.450
569.20	144.400
569.55	143.300
569.90	144.300
570.25	144.050
570.60	144.650
570.95	144.200
571.30	144.200
571.65	144.700
572.00	143.400
572.35	143.600
572.70	144.700
573.05	144.450
573.40	142.850
573.75	143.200
574.10	142.800
574.45	144.250
574.80	143.900
575.15	144.800
575.50	143.700
575.85	143.500
576.20	143.700
576.55	142.550
576.90	144.550
577.25	144.300
577.60	143.550
577.95	143.450
578.30	145.750
578.65	145.350
579.00	144.150
579.35	144.650
579.70	144.000
580.05	143.400
580.40	145.650
580.74	146.000
581.09	145.550
581.44	144.650
581.79	145.900
582.14	143.750
582.49	145.050
582.84	144.250
583.19	143.950
583.54	146.250
583.89	144.600
584.24	144.600
584.58	145.150
584.93	143.600
585.28	145.650
585.63	145.550
585.98	145.950
586.33	145.450
586.68	145.600
587.03	145.450
587.37	144.500
587.72	142.900
588.07	143.050
588.42	145.100
588.77	143.650
589.12	143.650
589.46	144.250
589.81	143.900
590.16	143.050
590.51	144.150
590.86	144.400
591.21	143.800
591.55	145.450
591.90	144.500
592.25	144.650
592.60	143.950
592.95	144.100
593.29	143.300
593.64	143.050
593.99	144.800
594.34	143.900
594.68	145.850
595.03	144.900
595.38	143.500
595.73	143.950
596.07	142.850
596.42	144.300
596.77	144.050
597.12	145.200
597.46	142.850
597.81	143.050
598.16	144.350
598.51	146.100
598.85	144.050
599.20	142.950
599.55	142.350
599.90	144.550
600.24	143.300
600.59	143.550
600.94	143.100
601.28	144.900
601.63	144.950
601.98	142.050
602.32	143.900
602.67	144.500
603.02	145.200
603.36	143.350
603.71	144.050
604.06	143.950
604.40	143.100
604.75	144.500
605.10	142.950
605.44	144.050
605.79	143.600
606.14	144.250
606.48	144.400
606.83	143.550
607.17	144.600
607.52	144.250
607.87	144.850
608.21	146.450
608.56	147.050
608.90	152.000
609.25	153.400
609.60	155.600
609.94	152.950
610.29	152.500
610.63	151.600
610.98	149.450
611.33	148.750
611.67	148.200
612.02	147.400
612.36	146.200
612.71	146.700
613.05	146.850
613.40	146.950
613.74	145.200
614.09	144.850
614.44	144.200
614.78	143.550
615.13	144.750
615.47	144.500
615.82	144.400
616.16	144.450
616.51	144.600
616.85	143.900
617.20	143.600
617.54	144.950
617.89	144.150
618.23	144.100
618.58	144.400
618.92	143.950
619.27	145.000
619.61	143.700
619.96	144.700
620.30	144.650
620.64	145.350
620.99	145.200
621.33	144.250
621.68	143.850
622.02	143.850
622.37	142.800
622.71	142.700
623.06	143.450
623.40	143.750
623.74	143.500
624.09	144.800
624.43	144.050
624.78	142.650
625.12	143.500
625.46	143.700
625.81	143.950
626.15	144.400
626.50	143.650
626.84	143.000
627.18	145.050
627.53	142.700
627.87	144.050
628.21	143.150
628.56	143.650
628.90	143.800
629.25	144.050
629.59	144.450
629.93	143.350
630.28	143.350
630.62	144.600
630.96	145.400
631.31	144.000
631.65	142.550
631.99	142.100
632.34	142.350
632.68	143.100
633.02	142.300
633.36	143.500
633.71	142.750
634.05	143.200
634.39	142.350
634.74	141.300
635.08	142.200
635.42	141.900
635.76	143.200
636.11	141.650
636.45	144.300
636.79	143.000
637.14	141.150
637.48	142.350
637.82	143.050
638.16	142.650
638.50	142.500
638.85	142.200
639.19	144.600
639.53	144.600
639.87	141.500
640.22	143.150
640.56	141.850
640.90	142.450
641.24	142.850
641.58	142.950
641.93	142.950
642.27	143.500
642.61	142.800
642.95	144.300
643.29	142.950
643.64	142.400
643.98	143.850
644.32	142.000
644.66	141.600
645.00	142.200
645.34	143.350
645.68	142.500
646.03	144.450
646.37	143.550
646.71	142.500
647.05	142.700
647.39	142.700
647.73	143.750
648.07	143.400
648.42	143.300
648.76	142.850
649.10	142.850
649.44	144.650
649.78	142.650
650.12	143.600
650.46	143.850
650.80	142.700
651.14	145.300
651.48	143.500
651.82	144.250
652.16	143.800
652.51	143.600
652.85	141.900
653.19	142.650
653.53	142.750
653.87	143.300
654.21	142.750
654.55	141.750
654.89	141.950
655.23	143.050
655.57	143.650
655.91	142.250
656.25	143.250
656.59	142.050
656.93	142.200
657.27	142.000
657.61	144.400
657.95	142.400
658.29	142.650
658.63	142.600
658.97	143.250
659.31	143.400
659.65	142.250
659.99	143.050
660.33	143.150
660.67	142.600
661.01	144.050
661.35	143.400
661.68	143.750
662.02	142.450
662.36	141.300
662.70	142.500
663.04	143.150
663.38	143.000
663.72	140.950
664.06	143.150
664.40	142.900
664.74	142.300
665.08	143.400
665.42	143.850
665.75	142.300
666.09	141.950
666.43	144.750
666.77	142.400
667.11	141.300
667.45	141.900
667.79	142.800
668.12	141.850
668.46	141.850
668.80	142.150
669.14	141.850
669.48	143.150
669.82	142.650
670.16	143.200
670.49	141.250
670.83	142.600
671.17	141.950
671.51	142.900
671.85	141.800
672.18	141.450
672.52	142.450
672.86	142.050
673.20	142.500
673.54	143.300
673.87	141.900
674.21	143.850
674.55	141.900
674.89	142.350
675.22	142.600
675.56	142.200
675.90	142.650
676.24	142.350
676.57	142.350
676.91	143.800
677.25	141.750
677.59	142.050
677.92	140.900
678.26	141.200
678.60	142.850
678.93	142.900
679.27	143.300
679.61	141.950
679.95	141.400
680.28	142.600
680.62	142.250
680.96	143.150
681.29	142.100
681.63	142.200
681.97	140.900
682.30	142.250
682.64	142.250
682.98	142.650
683.31	143.550
683.65	145.000
683.99	140.900
684.32	142.750
684.66	142.050
685.00	141.600
685.33	142.950
685.67	143.050
686.00	142.600
686.34	140.750
686.68	143.600
687.01	142.550
687.35	141.050
687.68	144.350
688.02	141.450
688.36	142.400
688.69	143.050
689.03	142.400
689.36	141.600
689.70	141.700
690.03	142.700
690.37	141.300
690.71	141.000
691.04	141.900
691.38	142.050
691.71	142.050
692.05	141.400
692.38	142.450
692.72	141.700
693.05	141.850
693.39	141.750
693.72	142.650
694.06	141.900
694.39	142.100
694.73	141.050
695.06	141.350
695.40	142.450
695.73	142.550
696.07	141.900
696.40	141.900
696.74	143.150
697.07	142.550
697.41	142.400
697.74	144.250
698.08	142.400
698.41	141.850
698.74	142.850
699.08	141.250
699.41	141.250
699.75	143.250
700.08	141.900
700.42	142.000
700.75	141.350
701.08	142.800
701.42	141.650
701.75	142.200
702.09	143.250
702.42	144.250
702.75	143.300
703.09	141.750
703.42	142.250
703.75	142.300
704.09	140.750
704.42	141.750
704.76	142.550
705.09	142.500
705.42	142.750
705.76	143.900
706.09	142.100
706.42	144.350
706.76	143.700
707.09	142.700
707.42	141.400
707.76	142.500
708.09	141.300
708.42	142.600
708.75	143.050
709.09	141.400
709.42	142.900
709.75	141.850
710.09	143.050
710.42	142.150
710.75	141.700
711.08	143.250
711.42	143.400
711.75	141.900
712.08	142.850
712.41	141.150
712.75	142.400
713.08	141.900
713.41	141.850
713.74	142.250
714.08	141.850
714.41	142.150
714.74	141.600
715.07	143.650
715.41	142.550
715.74	142.000
716.07	141.950
716.40	142.300
716.73	142.500
717.06	141.350
717.40	141.350
717.73	141.350
718.06	142.300
718.39	143.650
718.72	142.850
719.05	142.550
719.39	141.450
719.72	140.450
720.05	141.800
720.38	142.100
720.71	142.550
721.04	142.100
721.37	141.900
721.71	141.300
722.04	142.650
722.37	141.900
722.70	141.450
723.03	141.950
723.36	141.450
723.69	142.100
724.02	141.750
724.35	142.150
724.68	143.650
725.01	140.900
725.35	141.750
725.68	141.950
726.01	142.700
726.34	142.500
726.67	141.350
727.00	141.800
727.33	141.450
727.66	142.250
727.99	142.850
728.32	142.200
728.65	142.400
728.98	141.600
729.31	142.750
729.64	141.750
729.97	140.400
730.30	141.250
730.63	142.350
730.96	142.000
731.29	141.850
731.62	142.300
731.95	142.850
732.28	143.100
732.61	142.950
732.94	141.650
733.27	141.950
733.60	142.550
733.93	140.200
734.25	141.600
734.58	141.800
734.91	141.500
735.24	141.000
735.57	142.000
735.90	143.050
736.23	141.850
736.56	141.850
736.89	142.200
737.22	142.300
737.55	142.650
737.87	143.650
738.20	141.250
738.53	141.300
738.86	141.800
739.19	143.650
739.52	143.650
739.85	141.750
740.17	142.300
740.50	142.800
740.83	142.300
741.16	143.350
741.49	143.550
741.82	143.350
742.14	142.700
742.47	141.500
742.80	142.650
743.13	141.150
743.46	142.550
743.78	142.950
744.11	142.400
744.44	142.600
744.77	144.000
745.10	144.300
745.42	142.800
745.75	142.550
746.08	142.700
746.41	142.350
746.73	141.000
747.06	142.650
747.39	142.150
747.72	142.350
748.04	141.400
748.37	143.200
748.70	141.450
749.02	142.500
749.35	143.150
749.68	142.800
750.01	141.750
750.33	144.100
750.66	142.650
750.99	143.100
751.31	141.850
751.64	141.900
751.97	141.700
752.29	143.950
752.62	142.000
752.95	142.100
753.27	141.950
753.60	143.050
753.93	142.700
754.25	140.800
754.58	142.450
754.91	142.700
755.23	143.500
755.56	146.850
755.88	143.400
756.21	144.000
756.54	141.650
756.86	141.550
757.19	142.450
757.51	142.200
757.84	142.400
758.17	143.750
758.49	141.450
758.82	142.050
759.14	141.750
759.47	141.750
759.79	142.250
760.12	141.450
760.44	141.000
760.77	142.100
761.09	143.150
761.42	143.150
761.75	143.700
762.07	141.950
762.40	142.850
762.72	142.550
763.05	141.550
763.37	141.350
763.70	142.200
764.02	142.800
764.35	140.950
764.67	141.700
764.99	143.100
765.32	142.600
765.64	143.100
765.97	141.500
766.29	142.050
766.62	141.950
766.94	143.700
767.27	142.450
767.59	141.700
767.91	142.750
768.24	144.100
768.56	142.150
768.89	142.850
769.21	142.750
769.54	143.200
769.86	143.800
770.18	142.700
770.51	142.650
770.83	141.950
771.15	142.050
771.48	142.300
771.80	141.450
772.13	142.200
772.45	142.750
772.77	142.400
773.10	142.850
773.42	142.950
773.74	141.550
774.07	142.000
774.39	143.350
774.71	141.950
775.04	142.200
775.36	141.150
775.68	140.950
776.01	141.750
776.33	140.800
776.65	141.600
776.97	142.100
777.30	143.450
777.62	142.050
777.94	143.600
778.26	142.300
778.59	141.250
778.91	140.900
779.23	141.950
779.55	142.350
779.88	142.700
780.20	141.900
780.52	141.350
780.84	140.600
781.17	142.000
781.49	141.200
781.81	143.100
782.13	141.950
782.45	142.400
782.78	143.050
783.10	143.100
783.42	143.250
783.74	142.350
784.06	141.450
784.39	141.500
784.71	143.200
785.03	142.000
785.35	143.450
785.67	142.600
785.99	140.700
786.31	142.150
786.64	141.250
786.96	142.700
787.28	142.100
787.60	142.050
787.92	142.850
788.24	142.750
788.56	140.950
788.88	142.000
789.20	146.600
789.53	143.150
789.85	142.650
790.17	141.750
790.49	140.450
790.81	141.050
791.13	141.850
791.45	142.600
791.77	143.300
792.09	142.450
