OOIBase32 Version 2.0.6.5 Data File
++++++++++++++++++++++++++++++++++++
Date: 04-16-2021, 17:11:35
User: Valued Ocean Optics Customer
Spectrometer Serial Number: USB2E5007
Spectrometer Channel: Master
Integration Time (msec): 45
Spectra Averaged: 20
Boxcar Smoothing: 0
Correct for Electrical Dark: Disabled
Time Normalized: Disabled
Dual-beam Reference: Disabled
Reference Channel: Master
Temperature: Not acquired
Spectrometer Type: S2000
ADC Type: USB2000
Number of Pixels in File: 2048
Graph Title: 
>>>>>Begin Spectral Data<<<<<
340.15	0.000
340.52	129.700
340.90	131.250
341.27	133.050
341.64	134.450
342.01	136.800
342.38	137.650
342.76	139.600
343.13	140.900
343.50	139.750
343.87	140.250
344.24	140.250
344.61	142.200
344.98	140.500
345.36	140.050
345.73	140.950
346.10	140.450
346.47	141.950
346.84	140.800
347.21	139.900
347.58	139.400
347.96	142.150
348.33	138.300
348.70	139.850
349.07	139.700
349.44	140.350
349.81	141.800
350.18	140.650
350.55	140.850
350.92	141.650
351.30	141.300
351.67	141.650
352.04	141.050
352.41	141.000
352.78	142.200
353.15	142.100
353.52	140.250
353.89	143.500
354.26	141.050
354.63	140.900
355.00	142.800
355.37	142.400
355.75	141.800
356.12	140.900
356.49	142.600
356.86	141.250
357.23	142.100
357.60	141.250
357.97	141.600
358.34	140.950
358.71	143.150
359.08	142.100
359.45	141.300
359.82	143.600
360.19	143.150
360.56	143.150
360.93	143.550
361.30	142.650
361.67	142.500
362.04	143.950
362.41	142.500
362.78	142.250
363.15	144.600
363.52	143.500
363.89	142.800
364.26	141.600
364.63	142.400
365.00	143.300
365.37	143.000
365.74	142.900
366.11	143.550
366.48	145.150
366.85	143.250
367.22	143.150
367.59	145.350
367.96	143.450
368.33	143.600
368.70	143.250
369.07	143.700
369.44	143.700
369.81	144.550
370.18	143.450
370.55	142.300
370.92	144.250
371.29	143.350
371.66	144.700
372.03	144.400
372.40	144.150
372.77	144.450
373.13	143.000
373.50	144.900
373.87	144.250
374.24	145.850
374.61	144.950
374.98	145.300
375.35	145.450
375.72	144.900
376.09	144.950
376.46	144.750
376.83	145.350
377.20	144.300
377.56	144.600
377.93	144.000
378.30	145.000
378.67	144.000
379.04	145.050
379.41	145.250
379.78	145.450
380.15	146.300
380.51	144.450
380.88	144.950
381.25	144.900
381.62	146.000
381.99	144.100
382.36	143.850
382.73	144.950
383.09	145.150
383.46	144.350
383.83	145.700
384.20	146.200
384.57	146.900
384.94	146.200
385.31	144.050
385.67	144.550
386.04	145.200
386.41	144.650
386.78	145.700
387.15	147.200
387.51	145.450
387.88	147.050
388.25	144.850
388.62	145.850
388.99	145.450
389.36	144.850
389.72	145.950
390.09	149.000
390.46	147.200
390.83	145.600
391.19	145.900
391.56	145.750
391.93	145.950
392.30	147.300
392.67	146.500
393.03	146.150
393.40	146.400
393.77	146.700
394.14	146.900
394.50	146.900
394.87	146.250
395.24	145.850
395.61	145.950
395.97	147.000
396.34	145.850
396.71	145.500
397.08	147.050
397.44	145.950
397.81	147.300
398.18	147.150
398.55	146.700
398.91	147.950
399.28	147.950
399.65	147.350
400.01	148.350
400.38	146.000
400.75	146.400
401.12	146.600
401.48	145.100
401.85	146.250
402.22	147.450
402.58	146.950
402.95	146.850
403.32	147.750
403.68	146.650
404.05	146.350
404.42	147.600
404.78	146.700
405.15	147.450
405.52	147.150
405.88	146.000
406.25	147.400
406.62	147.350
406.98	146.400
407.35	147.100
407.72	147.500
408.08	147.100
408.45	147.500
408.82	147.500
409.18	146.700
409.55	147.200
409.91	148.100
410.28	147.900
410.65	146.450
411.01	147.400
411.38	146.050
411.75	145.350
412.11	147.300
412.48	149.100
412.84	149.700
413.21	148.050
413.58	148.000
413.94	147.950
414.31	147.150
414.67	148.450
415.04	147.650
415.41	148.850
415.77	148.950
416.14	149.350
416.50	149.800
416.87	149.800
417.23	149.000
417.60	150.200
417.97	150.100
418.33	151.150
418.70	149.800
419.06	153.350
419.43	151.750
419.79	151.050
420.16	150.500
420.52	152.750
420.89	153.250
421.25	153.300
421.62	153.650
421.98	153.300
422.35	153.550
422.72	154.350
423.08	156.100
423.45	157.650
423.81	158.050
424.18	157.750
424.54	158.000
424.91	158.100
425.27	160.050
425.64	161.900
426.00	162.450
426.37	162.300
426.73	164.100
427.09	166.050
427.46	168.750
427.82	170.450
428.19	169.650
428.55	173.450
428.92	173.350
429.28	175.200
429.65	178.150
430.01	184.600
430.38	181.750
430.74	182.250
431.11	185.200
431.47	193.250
431.83	193.350
432.20	196.900
432.56	199.700
432.93	205.550
433.29	207.150
433.66	212.950
434.02	220.750
434.38	217.200
434.75	224.800
435.11	222.050
435.48	232.100
435.84	233.600
436.20	242.600
436.57	243.350
436.93	250.450
437.30	262.250
437.66	260.450
438.02	275.650
438.39	281.550
438.75	285.500
439.12	302.350
439.48	308.250
439.84	313.350
440.21	321.450
440.57	329.300
440.93	359.100
441.30	362.750
441.66	369.950
442.02	386.250
442.39	392.300
442.75	406.500
443.11	413.600
443.48	433.200
443.84	450.100
444.20	454.500
444.57	497.850
444.93	514.950
445.29	550.150
445.66	550.300
446.02	576.150
446.38	626.850
446.75	646.600
447.11	675.100
447.47	669.950
447.84	703.900
448.20	760.950
448.56	801.000
448.92	836.300
449.29	844.450
449.65	867.850
450.01	906.800
450.37	902.950
450.74	956.800
451.10	1001.300
451.46	1044.750
451.83	1014.000
452.19	1045.950
452.55	1017.450
452.91	1094.950
453.28	1121.100
453.64	1150.450
454.00	1151.500
454.36	1061.350
454.72	1153.900
455.09	1119.050
455.45	1136.900
455.81	1112.050
456.17	1087.700
456.54	1081.600
456.90	1075.900
457.26	1012.950
457.62	1018.550
457.98	1009.900
458.35	996.250
458.71	937.150
459.07	923.100
459.43	874.000
459.79	862.250
460.16	807.100
460.52	785.400
460.88	776.000
461.24	765.250
461.60	744.100
461.96	744.650
462.33	705.050
462.69	674.900
463.05	653.950
463.41	652.050
463.77	632.850
464.13	601.100
464.49	609.500
464.86	589.550
465.22	577.800
465.58	567.350
465.94	573.950
466.30	548.000
466.66	558.100
467.02	552.200
467.38	535.500
467.75	527.800
468.11	515.850
468.47	509.600
468.83	510.500
469.19	506.700
469.55	500.750
469.91	484.700
470.27	461.700
470.63	473.300
470.99	466.800
471.35	452.250
471.72	453.200
472.08	445.950
472.44	433.450
472.80	419.600
473.16	421.750
473.52	407.700
473.88	399.100
474.24	391.250
474.60	386.950
474.96	379.300
475.32	370.300
475.68	362.800
476.04	358.900
476.40	348.400
476.76	342.950
477.12	334.000
477.48	326.750
477.84	324.750
478.20	317.500
478.56	311.850
478.92	306.400
479.28	301.500
479.64	295.750
480.00	293.350
480.36	290.550
480.72	283.600
481.08	281.650
481.44	277.650
481.80	273.450
482.16	268.950
482.52	268.250
482.88	264.600
483.24	262.800
483.60	261.200
483.96	258.400
484.32	256.450
484.68	252.250
485.04	250.700
485.40	246.950
485.76	245.250
486.12	245.100
486.48	240.400
486.83	237.050
487.19	234.550
487.55	231.850
487.91	230.950
488.27	227.850
488.63	223.050
488.99	223.100
489.35	221.600
489.71	218.300
490.07	216.900
490.43	213.050
490.78	209.450
491.14	209.700
491.50	206.850
491.86	203.200
492.22	199.650
492.58	197.300
492.94	195.300
493.30	196.150
493.65	190.600
494.01	191.250
494.37	190.250
494.73	188.650
495.09	184.150
495.45	184.300
495.80	183.500
496.16	181.550
496.52	181.050
496.88	179.300
497.24	178.250
497.60	177.600
497.95	174.300
498.31	173.750
498.67	171.400
499.03	173.200
499.39	170.600
499.74	170.100
500.10	168.000
500.46	168.900
500.82	167.800
501.18	168.500
501.53	165.550
501.89	165.700
502.25	165.500
502.61	163.400
502.96	165.000
503.32	163.050
503.68	164.550
504.04	161.100
504.40	161.700
504.75	162.250
505.11	160.550
505.47	160.700
505.82	160.800
506.18	160.100
506.54	158.400
506.90	159.250
507.25	158.400
507.61	156.100
507.97	156.900
508.33	157.150
508.68	157.700
509.04	156.650
509.40	155.900
509.75	154.600
510.11	155.450
510.47	155.100
510.82	153.700
511.18	153.250
511.54	153.200
511.89	154.800
512.25	153.250
512.61	153.300
512.96	152.700
513.32	152.050
513.68	152.450
514.03	152.600
514.39	152.300
514.75	150.750
515.10	153.750
515.46	151.850
515.82	151.100
516.17	151.550
516.53	152.050
516.89	150.250
517.24	150.150
517.60	149.700
517.95	150.250
518.31	150.850
518.67	149.900
519.02	149.600
519.38	150.650
519.73	148.350
520.09	149.350
520.45	148.350
520.80	149.450
521.16	148.850
521.51	148.550
521.87	148.450
522.22	146.850
522.58	148.700
522.94	148.250
523.29	147.400
523.65	148.100
524.00	149.100
524.36	149.550
524.71	148.450
525.07	147.050
525.42	146.250
525.78	147.900
526.14	147.450
526.49	147.600
526.85	148.400
527.20	148.950
527.56	148.500
527.91	147.200
528.27	148.250
528.62	147.600
528.98	146.350
529.33	147.200
529.69	146.400
530.04	147.400
530.40	146.900
530.75	147.550
531.11	147.450
531.46	148.550
531.81	146.500
532.17	147.300
532.52	147.050
532.88	146.600
533.23	146.600
533.59	148.750
533.94	147.000
534.30	146.000
534.65	146.350
535.01	146.550
535.36	147.600
535.71	145.850
536.07	147.450
536.42	148.350
536.78	147.650
537.13	147.050
537.48	146.800
537.84	148.200
538.19	149.250
538.55	148.650
538.90	150.850
539.25	152.300
539.61	154.250
539.96	155.600
540.32	154.750
540.67	153.400
541.02	153.500
541.38	152.600
541.73	151.850
542.08	152.550
542.44	152.650
542.79	152.550
543.15	152.400
543.50	155.200
543.85	157.400
544.21	158.400
544.56	156.100
544.91	156.100
545.27	152.350
545.62	151.550
545.97	150.250
546.32	150.150
546.68	149.200
547.03	149.050
547.38	150.900
547.74	147.600
548.09	148.300
548.44	147.900
548.80	149.850
549.15	147.950
549.50	145.350
549.85	147.850
550.21	147.100
550.56	146.550
550.91	147.750
551.26	144.950
551.62	146.550
551.97	146.000
552.32	146.200
552.67	145.300
553.03	144.950
553.38	145.900
553.73	146.400
554.08	145.850
554.44	145.450
554.79	144.400
555.14	145.300
555.49	145.350
555.85	144.900
556.20	144.150
556.55	145.900
556.90	144.700
557.25	145.350
557.61	144.700
557.96	145.750
558.31	144.100
558.66	143.950
559.01	145.200
559.36	144.750
559.72	145.450
560.07	143.500
560.42	144.950
560.77	145.200
561.12	145.150
561.47	144.350
561.83	143.250
562.18	144.500
562.53	144.850
562.88	144.700
563.23	146.750
563.58	146.000
563.93	144.200
564.28	145.650
564.64	144.750
564.99	144.450
565.34	144.750
565.69	147.550
566.04	145.300
566.39	144.500
566.74	144.700
567.09	144.700
567.44	145.150
567.79	144.400
568.14	144.450
568.50	144.500
568.85	144.300
569.20	144.550
569.55	144.750
569.90	144.750
570.25	143.850
570.60	144.050
570.95	145.450
571.30	144.250
571.65	143.400
572.00	144.000
572.35	144.950
572.70	144.100
573.05	143.400
573.40	144.100
573.75	144.600
574.10	144.650
574.45	145.250
574.80	146.050
575.15	145.150
575.50	146.500
575.85	145.000
576.20	144.400
576.55	143.650
576.90	145.500
577.25	145.400
577.60	143.800
577.95	145.150
578.30	145.500
578.65	145.150
579.00	145.550
579.35	145.950
579.70	145.350
580.05	144.200
580.40	145.900
580.74	145.250
581.09	145.400
581.44	144.950
581.79	146.850
582.14	145.100
582.49	146.350
582.84	145.900
583.19	144.050
583.54	145.800
583.89	145.800
584.24	144.450
584.58	144.950
584.93	144.550
585.28	145.300
585.63	145.800
585.98	145.200
586.33	145.100
586.68	145.000
587.03	146.550
587.37	146.300
587.72	143.500
588.07	144.850
588.42	144.850
588.77	144.200
589.12	144.250
589.46	143.950
589.81	145.500
590.16	143.200
590.51	145.200
590.86	144.050
591.21	143.950
591.55	145.750
591.90	145.200
592.25	144.550
592.60	144.950
592.95	143.400
593.29	144.800
593.64	144.350
593.99	145.200
594.34	144.100
594.68	143.750
595.03	144.400
595.38	144.350
595.73	144.750
596.07	143.650
596.42	144.750
596.77	143.600
597.12	143.000
597.46	143.550
597.81	145.100
598.16	143.950
598.51	145.950
598.85	144.850
599.20	143.400
599.55	143.800
599.90	143.900
600.24	142.800
600.59	143.200
600.94	143.400
601.28	144.600
601.63	143.500
601.98	142.750
602.32	143.900
602.67	143.900
603.02	144.850
603.36	144.700
603.71	143.450
604.06	144.350
604.40	144.550
604.75	144.900
605.10	143.800
605.44	145.100
605.79	143.800
606.14	143.200
606.48	144.800
606.83	143.300
607.17	144.950
607.52	144.600
607.87	145.800
608.21	144.850
608.56	147.750
608.90	150.750
609.25	153.450
609.60	154.450
609.94	153.950
610.29	152.050
610.63	150.400
610.98	148.900
611.33	148.050
611.67	148.750
612.02	147.250
612.36	146.900
612.71	146.900
613.05	146.300
613.40	145.550
613.74	145.400
614.09	145.600
614.44	144.750
614.78	143.600
615.13	144.050
615.47	143.100
615.82	145.150
616.16	143.400
616.51	145.350
616.85	145.000
617.20	144.100
617.54	145.450
617.89	144.300
618.23	143.800
618.58	144.050
618.92	142.700
619.27	145.150
619.61	144.600
619.96	143.800
620.30	144.250
620.64	144.500
620.99	144.450
621.33	144.550
621.68	145.600
622.02	144.300
622.37	144.200
622.71	143.350
623.06	143.650
623.40	144.350
623.74	144.800
624.09	145.200
624.43	144.650
624.78	143.500
625.12	143.000
625.46	143.550
625.81	143.300
626.15	145.200
626.50	143.950
626.84	143.350
627.18	144.650
627.53	144.050
627.87	144.300
628.21	144.250
628.56	144.350
628.90	143.650
629.25	144.450
629.59	144.500
629.93	144.050
630.28	143.950
630.62	143.450
630.96	145.000
631.31	143.250
631.65	143.500
631.99	143.950
632.34	143.250
632.68	143.200
633.02	142.100
633.36	143.300
633.71	142.600
634.05	144.000
634.39	143.250
634.74	142.300
635.08	141.650
635.42	142.200
635.76	143.050
636.11	142.250
636.45	144.100
636.79	142.700
637.14	141.800
637.48	142.950
637.82	143.000
638.16	141.800
638.50	142.600
638.85	141.950
639.19	143.700
639.53	143.450
639.87	143.350
640.22	142.250
640.56	142.550
640.90	143.150
641.24	142.600
641.58	142.900
641.93	142.800
642.27	143.700
642.61	143.500
642.95	143.200
643.29	143.450
643.64	143.600
643.98	142.350
644.32	143.650
644.66	141.450
645.00	143.450
645.34	143.350
645.68	143.050
646.03	144.050
646.37	142.450
646.71	142.900
647.05	144.100
647.39	143.150
647.73	144.600
648.07	144.200
648.42	143.200
648.76	143.200
649.10	144.700
649.44	145.100
649.78	142.950
650.12	144.400
650.46	143.100
650.80	142.800
651.14	145.750
651.48	143.900
651.82	142.400
652.16	142.600
652.51	143.150
652.85	141.600
653.19	143.350
653.53	143.100
653.87	141.450
654.21	142.350
654.55	142.200
654.89	141.850
655.23	143.250
655.57	144.400
655.91	143.400
656.25	143.800
656.59	141.950
656.93	141.650
657.27	143.100
657.61	145.850
657.95	143.800
658.29	142.750
658.63	142.350
658.97	143.750
659.31	143.450
659.65	142.650
659.99	142.600
660.33	143.550
660.67	142.800
661.01	143.250
661.35	142.950
661.68	143.250
662.02	142.150
662.36	143.200
662.70	143.900
663.04	143.350
663.38	143.750
663.72	143.100
664.06	143.350
664.40	142.400
664.74	143.150
665.08	143.400
665.42	143.300
665.75	141.550
666.09	143.650
666.43	145.150
666.77	143.150
667.11	142.150
667.45	142.950
667.79	143.550
668.12	142.300
668.46	142.550
668.80	142.400
669.14	142.550
669.48	142.250
669.82	144.000
670.16	143.200
670.49	142.350
670.83	143.450
671.17	142.450
671.51	143.150
671.85	142.050
672.18	142.350
672.52	142.750
672.86	143.000
673.20	142.850
673.54	142.400
673.87	142.450
674.21	143.000
674.55	143.000
674.89	142.250
675.22	142.750
675.56	142.800
675.90	142.750
676.24	143.150
676.57	142.900
676.91	143.050
677.25	142.350
677.59	142.550
677.92	143.500
678.26	142.900
678.60	142.800
678.93	143.500
679.27	142.800
679.61	143.150
679.95	141.350
680.28	143.800
680.62	143.650
680.96	143.100
681.29	142.150
681.63	142.450
681.97	141.000
682.30	143.200
682.64	143.150
682.98	143.150
683.31	142.400
683.65	144.400
683.99	140.850
684.32	142.900
684.66	142.100
685.00	141.800
685.33	142.000
685.67	142.850
686.00	142.150
686.34	142.550
686.68	144.900
687.01	142.300
687.35	141.550
687.68	143.800
688.02	142.750
688.36	143.550
688.69	142.350
689.03	142.600
689.36	142.750
689.70	143.100
690.03	143.850
690.37	142.800
690.71	142.550
691.04	143.200
691.38	141.250
691.71	143.150
692.05	141.750
692.38	141.900
692.72	143.150
693.05	143.200
693.39	142.400
693.72	142.600
694.06	142.350
694.39	141.800
694.73	142.150
695.06	141.850
695.40	141.800
695.73	142.600
696.07	143.700
696.40	142.050
696.74	143.350
697.07	143.500
697.41	141.400
697.74	143.800
698.08	142.050
698.41	143.000
698.74	143.900
699.08	142.300
699.41	143.100
699.75	142.250
700.08	140.950
700.42	141.950
700.75	142.100
701.08	142.200
701.42	141.050
701.75	143.950
702.09	143.950
702.42	144.450
702.75	143.150
703.09	142.050
703.42	142.500
703.75	142.250
704.09	143.400
704.42	143.150
704.76	144.150
705.09	143.200
705.42	141.750
705.76	142.900
706.09	141.650
706.42	144.450
706.76	144.000
707.09	143.450
707.42	142.900
707.76	142.700
708.09	142.000
708.42	142.850
708.75	143.700
709.09	142.450
709.42	142.850
709.75	143.200
710.09	144.100
710.42	143.350
710.75	142.550
711.08	142.850
711.42	143.250
711.75	142.500
712.08	142.150
712.41	143.000
712.75	144.400
713.08	142.650
713.41	142.500
713.74	142.000
714.08	142.000
714.41	142.750
714.74	141.850
715.07	144.450
715.41	142.050
715.74	144.000
716.07	142.200
716.40	142.600
716.73	142.250
717.06	141.950
717.40	141.850
717.73	141.400
718.06	142.650
718.39	143.250
718.72	142.600
719.05	141.400
719.39	142.800
719.72	142.150
720.05	142.850
720.38	142.200
720.71	142.750
721.04	142.750
721.37	142.850
721.71	141.950
722.04	141.850
722.37	142.900
722.70	143.000
723.03	143.200
723.36	142.200
723.69	141.400
724.02	142.450
724.35	141.550
724.68	142.650
725.01	143.000
725.35	142.400
725.68	142.750
726.01	141.850
726.34	143.400
726.67	141.550
727.00	141.600
727.33	142.950
727.66	141.750
727.99	143.100
728.32	141.600
728.65	142.750
728.98	142.550
729.31	144.450
729.64	143.400
729.97	141.550
730.30	141.850
730.63	142.750
730.96	142.000
731.29	142.250
731.62	143.000
731.95	144.200
732.28	144.500
732.61	143.700
732.94	143.150
733.27	142.350
733.60	143.250
733.93	142.450
734.25	142.250
734.58	142.200
734.91	142.800
735.24	142.600
735.57	143.050
735.90	142.700
736.23	143.150
736.56	143.600
736.89	142.000
737.22	143.950
737.55	142.400
737.87	142.850
738.20	142.800
738.53	142.900
738.86	142.650
739.19	142.750
739.52	143.200
739.85	141.650
740.17	142.650
740.50	143.700
740.83	141.850
741.16	141.450
741.49	143.050
741.82	143.400
742.14	142.650
742.47	142.400
742.80	142.700
743.13	141.250
743.46	142.050
743.78	143.250
744.11	143.250
744.44	143.400
744.77	142.200
745.10	143.600
745.42	143.350
745.75	142.900
746.08	142.650
746.41	142.800
746.73	141.800
747.06	143.900
747.39	142.700
747.72	142.550
748.04	141.950
748.37	143.050
748.70	143.000
749.02	142.800
749.35	142.150
749.68	142.100
750.01	142.900
750.33	143.900
750.66	142.900
750.99	142.600
751.31	142.100
751.64	142.450
751.97	141.500
752.29	143.350
752.62	142.700
752.95	142.300
753.27	142.700
753.60	143.050
753.93	142.000
754.25	141.550
754.58	142.500
754.91	142.050
755.23	143.850
755.56	146.350
755.88	144.500
756.21	142.600
756.54	142.650
756.86	141.400
757.19	143.250
757.51	142.400
757.84	143.500
758.17	142.250
758.49	142.450
758.82	141.750
759.14	141.900
759.47	142.450
759.79	141.700
760.12	142.000
760.44	142.500
760.77	142.850
761.09	142.500
761.42	142.600
761.75	142.800
762.07	142.000
762.40	142.100
762.72	141.750
763.05	141.600
763.37	142.250
763.70	142.550
764.02	143.000
764.35	142.050
764.67	141.900
764.99	143.200
765.32	141.650
765.64	144.550
765.97	141.800
766.29	143.400
766.62	141.100
766.94	143.550
767.27	142.750
767.59	142.100
767.91	143.000
768.24	143.750
768.56	142.150
768.89	142.650
769.21	141.900
769.54	142.200
769.86	141.800
770.18	141.600
770.51	141.700
770.83	142.400
771.15	140.650
771.48	141.800
771.80	142.150
772.13	142.650
772.45	141.850
772.77	141.550
773.10	142.350
773.42	143.000
773.74	142.550
774.07	141.650
774.39	141.550
774.71	141.900
775.04	143.800
775.36	141.550
775.68	141.800
776.01	141.800
776.33	141.700
776.65	142.350
776.97	142.450
777.30	143.300
777.62	143.250
777.94	143.750
778.26	143.000
778.59	141.150
778.91	140.850
779.23	141.900
779.55	142.200
779.88	142.850
780.20	142.200
780.52	139.950
780.84	141.000
781.17	142.950
781.49	142.900
781.81	142.200
782.13	141.600
782.45	143.350
782.78	143.150
783.10	143.800
783.42	142.900
783.74	142.550
784.06	142.200
784.39	141.300
784.71	142.050
785.03	142.950
785.35	143.400
785.67	142.100
785.99	141.150
786.31	142.300
786.64	141.850
786.96	142.350
787.28	142.550
787.60	141.500
787.92	142.650
788.24	142.600
788.56	142.350
788.88	143.050
789.20	146.450
789.53	143.300
789.85	143.450
790.17	142.550
790.49	141.450
790.81	141.300
791.13	142.650
791.45	142.900
791.77	142.350
