OOIBase32 Version 2.0.6.5 Data File
++++++++++++++++++++++++++++++++++++
Date: 04-16-2021, 17:10:22
User: Valued Ocean Optics Customer
Spectrometer Serial Number: USB2E5007
Spectrometer Channel: Master
Integration Time (msec): 45
Spectra Averaged: 20
Boxcar Smoothing: 0
Correct for Electrical Dark: Disabled
Time Normalized: Disabled
Dual-beam Reference: Disabled
Reference Channel: Master
Temperature: Not acquired
Spectrometer Type: S2000
ADC Type: USB2000
Number of Pixels in File: 2048
Graph Title: 
>>>>>Begin Spectral Data<<<<<
340.15	0.000
340.52	129.700
340.90	131.600
341.27	132.800
341.64	134.700
342.01	137.600
342.38	138.250
342.76	139.500
343.13	139.600
343.50	140.500
343.87	139.800
344.24	140.900
344.61	141.000
344.98	139.750
345.36	140.050
345.73	142.250
346.10	140.100
346.47	140.900
346.84	140.000
347.21	139.700
347.58	140.900
347.96	142.300
348.33	140.000
348.70	139.350
349.07	141.250
349.44	140.700
349.81	143.500
350.18	141.150
350.55	142.500
350.92	142.600
351.30	142.800
351.67	142.150
352.04	141.700
352.41	142.850
352.78	144.000
353.15	143.450
353.52	143.300
353.89	144.350
354.26	143.550
354.63	142.000
355.00	143.950
355.37	144.150
355.75	142.250
356.12	142.700
356.49	142.650
356.86	143.950
357.23	144.000
357.60	143.000
357.97	143.400
358.34	143.700
358.71	144.550
359.08	144.150
359.45	143.200
359.82	144.800
360.19	145.150
360.56	143.800
360.93	143.700
361.30	143.750
361.67	143.250
362.04	144.850
362.41	144.000
362.78	144.150
363.15	145.700
363.52	145.550
363.89	144.850
364.26	144.850
364.63	145.000
365.00	143.950
365.37	145.300
365.74	144.550
366.11	143.700
366.48	144.900
366.85	144.800
367.22	144.650
367.59	146.100
367.96	145.150
368.33	145.350
368.70	145.000
369.07	145.000
369.44	145.900
369.81	146.250
370.18	145.500
370.55	145.350
370.92	146.300
371.29	145.100
371.66	146.850
372.03	145.700
372.40	145.400
372.77	146.150
373.13	146.550
373.50	145.950
373.87	145.750
374.24	147.000
374.61	147.400
374.98	146.350
375.35	146.750
375.72	145.950
376.09	146.550
376.46	145.800
376.83	146.600
377.20	145.650
377.56	147.150
377.93	145.750
378.30	146.950
378.67	147.100
379.04	146.650
379.41	146.600
379.78	147.300
380.15	148.600
380.51	146.550
380.88	147.700
381.25	146.500
381.62	147.400
381.99	146.900
382.36	146.400
382.73	146.450
383.09	147.200
383.46	146.900
383.83	146.500
384.20	147.150
384.57	147.950
384.94	147.400
385.31	146.500
385.67	148.050
386.04	147.050
386.41	148.100
386.78	147.900
387.15	148.700
387.51	147.500
387.88	147.750
388.25	147.450
388.62	148.850
388.99	147.850
389.36	147.900
389.72	147.450
390.09	150.150
390.46	149.000
390.83	148.850
391.19	148.300
391.56	146.900
391.93	148.500
392.30	149.400
392.67	148.350
393.03	148.550
393.40	148.550
393.77	148.150
394.14	148.900
394.50	147.250
394.87	148.200
395.24	149.350
395.61	148.700
395.97	149.150
396.34	149.150
396.71	148.100
397.08	150.350
397.44	149.050
397.81	148.950
398.18	149.050
398.55	149.600
398.91	149.550
399.28	148.900
399.65	150.550
400.01	150.800
400.38	148.650
400.75	149.150
401.12	148.750
401.48	148.300
401.85	149.650
402.22	150.100
402.58	150.200
402.95	151.900
403.32	150.700
403.68	149.800
404.05	149.450
404.42	149.000
404.78	150.850
405.15	150.850
405.52	150.250
405.88	150.450
406.25	149.800
406.62	148.850
406.98	150.250
407.35	150.200
407.72	150.300
408.08	151.200
408.45	152.500
408.82	152.850
409.18	151.550
409.55	151.000
409.91	152.950
410.28	152.700
410.65	151.900
411.01	152.600
411.38	151.400
411.75	152.550
412.11	153.550
412.48	154.150
412.84	155.300
413.21	154.750
413.58	155.700
413.94	156.650
414.31	155.400
414.67	157.500
415.04	155.500
415.41	157.300
415.77	159.750
416.14	160.800
416.50	161.050
416.87	160.750
417.23	162.400
417.60	163.600
417.97	162.950
418.33	164.100
418.70	165.000
419.06	167.850
419.43	167.900
419.79	171.200
420.16	170.800
420.52	175.400
420.89	176.450
421.25	178.650
421.62	182.450
421.98	181.400
422.35	183.750
422.72	182.900
423.08	189.250
423.45	194.250
423.81	194.000
424.18	198.900
424.54	200.250
424.91	203.650
425.27	209.850
425.64	213.850
426.00	218.700
426.37	224.250
426.73	225.550
427.09	235.400
427.46	241.950
427.82	245.700
428.19	249.850
428.55	257.400
428.92	264.100
429.28	278.900
429.65	285.800
430.01	301.750
430.38	303.350
430.74	307.800
431.11	311.850
431.47	344.200
431.83	342.150
432.20	367.050
432.56	371.700
432.93	394.900
433.29	397.800
433.66	407.200
434.02	443.850
434.38	431.400
434.75	470.300
435.11	470.750
435.48	497.350
435.84	504.450
436.20	545.600
436.57	547.100
436.93	575.900
437.30	611.750
437.66	606.850
438.02	676.800
438.39	696.100
438.75	710.200
439.12	779.750
439.48	799.100
439.84	813.250
440.21	852.000
440.57	876.500
440.93	1002.700
441.30	1013.850
441.66	1029.450
442.02	1100.750
442.39	1106.900
442.75	1163.000
443.11	1184.850
443.48	1253.200
443.84	1309.350
444.20	1311.000
444.57	1483.200
444.93	1518.350
445.29	1635.400
445.66	1623.900
446.02	1705.950
446.38	1859.550
446.75	1892.150
447.11	1975.700
447.47	1928.800
447.84	2017.800
448.20	2164.850
448.56	2263.050
448.92	2327.400
449.29	2330.100
449.65	2360.600
450.01	2441.900
450.37	2403.400
450.74	2504.300
451.10	2587.350
451.46	2665.650
451.83	2533.300
452.19	2582.600
452.55	2480.700
452.91	2623.950
453.28	2655.950
453.64	2685.550
454.00	2650.400
454.36	2417.850
454.72	2590.700
455.09	2484.750
455.45	2500.500
455.81	2432.950
456.17	2351.650
456.54	2323.000
456.90	2293.450
457.26	2135.450
457.62	2144.650
457.98	2122.350
458.35	2094.250
458.71	1957.500
459.07	1925.600
459.43	1810.650
459.79	1795.950
460.16	1677.600
460.52	1631.550
460.88	1615.050
461.24	1613.100
461.60	1567.650
461.96	1565.450
462.33	1483.200
462.69	1423.800
463.05	1369.000
463.41	1374.950
463.77	1331.150
464.13	1262.150
464.49	1287.700
464.86	1237.500
465.22	1209.350
465.58	1186.450
465.94	1193.500
466.30	1138.950
466.66	1160.350
467.02	1142.050
467.38	1094.850
467.75	1071.850
468.11	1039.450
468.47	1023.000
468.83	1017.200
469.19	1003.000
469.55	989.850
469.91	946.150
470.27	888.400
470.63	906.300
470.99	894.350
471.35	848.800
471.72	852.250
472.08	838.500
472.44	806.500
472.80	774.550
473.16	777.200
473.52	740.100
473.88	722.800
474.24	709.600
474.60	693.350
474.96	680.800
475.32	658.600
475.68	639.950
476.04	629.850
476.40	614.150
476.76	601.700
477.12	583.700
477.48	576.750
477.84	567.850
478.20	555.500
478.56	538.150
478.92	527.550
479.28	517.700
479.64	506.600
480.00	502.150
480.36	496.950
480.72	481.250
481.08	472.800
481.44	465.150
481.80	456.800
482.16	446.750
482.52	443.750
482.88	433.550
483.24	431.900
483.60	427.050
483.96	416.750
484.32	408.950
484.68	401.400
485.04	398.400
485.40	391.350
485.76	383.150
486.12	377.500
486.48	372.500
486.83	363.950
487.19	356.750
487.55	350.800
487.91	348.150
488.27	338.850
488.63	333.150
488.99	325.900
489.35	322.750
489.71	316.100
490.07	307.250
490.43	301.650
490.78	298.150
491.14	293.050
491.50	288.200
491.86	282.100
492.22	275.700
492.58	271.550
492.94	266.500
493.30	262.450
493.65	257.150
494.01	255.300
494.37	251.600
494.73	245.550
495.09	243.750
495.45	239.550
495.80	237.950
496.16	232.700
496.52	231.300
496.88	225.550
497.24	225.150
497.60	222.300
497.95	220.300
498.31	215.500
498.67	213.750
499.03	213.900
499.39	209.400
499.74	208.750
500.10	206.350
500.46	203.750
500.82	202.350
501.18	201.900
501.53	198.150
501.89	197.450
502.25	197.000
502.61	192.850
502.96	193.050
503.32	190.100
503.68	192.050
504.04	189.050
504.40	187.650
504.75	185.400
505.11	185.700
505.47	183.550
505.82	182.800
506.18	182.400
506.54	180.700
506.90	180.950
507.25	178.900
507.61	177.100
507.97	176.850
508.33	174.500
508.68	175.600
509.04	173.850
509.40	174.300
509.75	170.500
510.11	171.700
510.47	171.600
510.82	170.300
511.18	168.650
511.54	169.150
511.89	168.150
512.25	166.550
512.61	167.650
512.96	166.800
513.32	164.000
513.68	165.650
514.03	164.850
514.39	164.150
514.75	163.000
515.10	165.150
515.46	162.800
515.82	162.150
516.17	161.300
516.53	161.950
516.89	161.250
517.24	161.150
517.60	159.650
517.95	159.900
518.31	158.450
518.67	160.000
519.02	160.450
519.38	161.300
519.73	158.450
520.09	158.100
520.45	158.850
520.80	157.500
521.16	157.300
521.51	156.600
521.87	156.300
522.22	156.300
522.58	157.550
522.94	156.700
523.29	156.900
523.65	155.200
524.00	157.200
524.36	155.900
524.71	154.950
525.07	155.050
525.42	154.750
525.78	154.350
526.14	153.950
526.49	155.600
526.85	154.550
527.20	155.100
527.56	154.300
527.91	154.650
528.27	154.000
528.62	153.600
528.98	153.300
529.33	153.000
529.69	153.000
530.04	152.450
530.40	152.500
530.75	152.450
531.11	152.900
531.46	153.000
531.81	151.850
532.17	152.800
532.52	151.850
532.88	151.650
533.23	151.800
533.59	153.850
533.94	151.100
534.30	150.100
534.65	151.450
535.01	151.800
535.36	152.650
535.71	152.800
536.07	151.300
536.42	153.850
536.78	152.000
537.13	151.900
537.48	152.700
537.84	154.100
538.19	153.150
538.55	152.550
538.90	155.950
539.25	157.800
539.61	159.250
539.96	159.850
540.32	159.550
540.67	157.650
541.02	157.650
541.38	156.050
541.73	157.050
542.08	155.500
542.44	155.950
542.79	155.850
543.15	155.450
543.50	158.750
543.85	161.400
544.21	162.450
544.56	161.000
544.91	158.700
545.27	156.500
545.62	154.200
545.97	154.300
546.32	153.600
546.68	153.350
547.03	151.850
547.38	152.350
547.74	152.600
548.09	151.150
548.44	151.500
548.80	151.050
549.15	151.900
549.50	148.200
549.85	151.500
550.21	150.200
550.56	150.250
550.91	150.000
551.26	150.200
551.62	150.100
551.97	148.900
552.32	149.450
552.67	148.850
553.03	148.300
553.38	148.700
553.73	149.000
554.08	148.000
554.44	148.400
554.79	149.050
555.14	148.550
555.49	148.350
555.85	148.550
556.20	147.350
556.55	148.100
556.90	146.300
557.25	147.900
557.61	147.850
557.96	147.900
558.31	147.250
558.66	146.800
559.01	148.500
559.36	148.850
559.72	148.350
560.07	148.300
560.42	147.500
560.77	147.650
561.12	147.800
561.47	147.600
561.83	146.950
562.18	147.600
562.53	146.700
562.88	147.400
563.23	148.350
563.58	147.150
563.93	147.100
564.28	149.250
564.64	147.800
564.99	147.150
565.34	147.350
565.69	148.950
566.04	147.750
566.39	147.050
566.74	146.750
567.09	147.050
567.44	148.900
567.79	146.500
568.14	146.900
568.50	147.200
568.85	146.700
569.20	146.450
569.55	145.950
569.90	146.150
570.25	146.800
570.60	146.900
570.95	146.350
571.30	146.150
571.65	147.500
572.00	147.200
572.35	148.000
572.70	146.450
573.05	146.050
573.40	146.650
573.75	146.900
574.10	146.850
574.45	148.000
574.80	147.050
575.15	147.100
575.50	148.150
575.85	147.050
576.20	146.700
576.55	146.400
576.90	147.650
577.25	148.150
577.60	147.500
577.95	148.100
578.30	147.750
578.65	147.950
579.00	146.550
579.35	147.750
579.70	146.900
580.05	146.150
580.40	147.800
580.74	148.550
581.09	147.700
581.44	147.400
581.79	148.500
582.14	146.950
582.49	149.200
582.84	147.000
583.19	146.600
583.54	147.800
583.89	146.850
584.24	146.950
584.58	147.100
584.93	147.300
585.28	149.350
585.63	146.300
585.98	147.900
586.33	147.000
586.68	147.000
587.03	148.850
587.37	146.600
587.72	146.750
588.07	147.100
588.42	146.550
588.77	146.150
589.12	147.850
589.46	147.150
589.81	147.250
590.16	146.750
590.51	146.150
590.86	145.150
591.21	146.450
591.55	147.100
591.90	146.750
592.25	146.050
592.60	145.550
592.95	145.400
593.29	146.400
593.64	146.250
593.99	146.900
594.34	146.100
594.68	146.250
595.03	146.300
595.38	145.100
595.73	145.000
596.07	144.600
596.42	145.050
596.77	146.100
597.12	147.050
597.46	145.500
597.81	145.750
598.16	144.850
598.51	147.550
598.85	145.600
599.20	144.700
599.55	146.350
599.90	145.000
600.24	145.250
600.59	145.400
600.94	144.700
601.28	145.500
601.63	145.000
601.98	144.650
602.32	144.750
602.67	145.350
603.02	145.600
603.36	146.650
603.71	146.100
604.06	145.500
604.40	145.550
604.75	145.500
605.10	145.250
605.44	146.400
605.79	144.950
606.14	145.350
606.48	145.000
606.83	145.650
607.17	144.750
607.52	145.300
607.87	146.400
608.21	148.350
608.56	148.650
608.90	152.700
609.25	154.650
609.60	156.200
609.94	156.250
610.29	153.800
610.63	150.600
610.98	151.300
611.33	150.250
611.67	149.800
612.02	148.400
612.36	147.750
612.71	147.500
613.05	147.550
613.40	146.800
613.74	146.250
614.09	145.850
614.44	146.300
614.78	145.250
615.13	144.750
615.47	145.600
615.82	145.600
616.16	144.600
616.51	145.950
616.85	145.650
617.20	145.300
617.54	146.500
617.89	144.550
618.23	144.950
618.58	146.700
618.92	144.900
619.27	145.550
619.61	145.750
619.96	144.950
620.30	146.200
620.64	145.350
620.99	148.000
621.33	145.950
621.68	147.100
622.02	146.600
622.37	145.650
622.71	144.750
623.06	145.700
623.40	145.150
623.74	145.650
624.09	146.450
624.43	145.250
624.78	145.400
625.12	144.850
625.46	145.100
625.81	144.100
626.15	145.350
626.50	145.850
626.84	143.850
627.18	146.650
627.53	145.400
627.87	144.500
628.21	145.200
628.56	145.700
628.90	145.000
629.25	144.650
629.59	145.750
629.93	145.850
630.28	146.000
630.62	145.250
630.96	144.600
631.31	144.250
631.65	145.150
631.99	144.800
632.34	143.850
632.68	144.100
633.02	143.300
633.36	144.450
633.71	144.350
634.05	145.050
634.39	144.250
634.74	143.950
635.08	143.350
635.42	142.650
635.76	146.100
636.11	142.900
636.45	145.100
636.79	144.950
637.14	143.500
637.48	143.650
637.82	143.400
638.16	143.900
638.50	144.300
638.85	143.650
639.19	145.050
639.53	145.700
639.87	143.800
640.22	143.700
640.56	142.750
640.90	144.300
641.24	144.900
641.58	143.150
641.93	144.200
642.27	145.050
642.61	144.550
642.95	143.650
643.29	143.200
643.64	144.000
643.98	144.000
644.32	143.550
644.66	143.350
645.00	143.700
645.34	144.000
645.68	143.900
646.03	144.950
646.37	144.050
646.71	144.250
647.05	143.400
647.39	144.250
647.73	144.500
648.07	144.150
648.42	145.650
648.76	145.400
649.10	145.200
649.44	145.650
649.78	143.450
650.12	144.850
650.46	143.750
650.80	143.900
651.14	145.600
651.48	143.950
651.82	144.550
652.16	145.300
652.51	143.950
652.85	142.750
653.19	143.950
653.53	145.150
653.87	143.900
654.21	143.650
654.55	143.750
654.89	144.250
655.23	142.700
655.57	144.100
655.91	143.900
656.25	143.200
656.59	144.600
656.93	144.050
657.27	143.250
657.61	146.500
657.95	143.600
658.29	143.450
658.63	142.900
658.97	144.900
659.31	145.550
659.65	143.300
659.99	144.500
660.33	143.800
660.67	143.300
661.01	144.850
661.35	143.800
661.68	144.250
662.02	142.900
662.36	142.300
662.70	144.200
663.04	144.850
663.38	144.900
663.72	144.100
664.06	144.200
664.40	143.550
664.74	144.050
665.08	144.200
665.42	144.650
665.75	142.750
666.09	142.600
666.43	148.000
666.77	144.100
667.11	143.250
667.45	142.950
667.79	144.450
668.12	143.400
668.46	143.200
668.80	143.800
669.14	142.600
669.48	143.850
669.82	144.300
670.16	145.000
670.49	142.650
670.83	143.600
671.17	143.450
671.51	143.350
671.85	144.100
672.18	143.100
672.52	143.700
672.86	144.550
673.20	143.650
673.54	144.400
673.87	144.350
674.21	144.200
674.55	143.450
674.89	144.100
675.22	144.350
675.56	143.700
675.90	143.450
676.24	142.950
676.57	142.900
676.91	144.850
677.25	142.400
677.59	143.450
677.92	143.650
678.26	142.500
678.60	142.650
678.93	143.400
679.27	143.200
679.61	142.650
679.95	142.550
680.28	143.900
680.62	143.400
680.96	143.950
681.29	143.150
681.63	144.200
681.97	141.900
682.30	142.800
682.64	143.050
682.98	143.400
683.31	143.100
683.65	143.850
683.99	143.200
684.32	142.700
684.66	143.200
685.00	143.400
685.33	143.300
685.67	143.600
686.00	142.650
686.34	143.100
686.68	145.850
687.01	143.300
687.35	142.750
687.68	144.400
688.02	142.800
688.36	144.150
688.69	143.100
689.03	143.600
689.36	144.500
689.70	143.400
690.03	143.650
690.37	143.550
690.71	142.550
691.04	142.850
691.38	142.400
691.71	143.000
692.05	142.850
692.38	142.800
692.72	143.050
693.05	144.000
693.39	143.050
693.72	142.800
694.06	143.900
694.39	141.250
694.73	142.350
695.06	141.900
695.40	142.650
695.73	142.850
696.07	145.300
696.40	143.700
696.74	143.800
697.07	144.700
697.41	143.500
697.74	144.600
698.08	143.550
698.41	143.450
698.74	144.050
699.08	143.900
699.41	144.400
699.75	143.900
700.08	143.500
700.42	142.550
700.75	142.100
701.08	142.500
701.42	142.600
701.75	143.950
702.09	144.550
702.42	145.600
702.75	144.200
703.09	142.250
703.42	143.600
703.75	143.350
704.09	142.450
704.42	143.250
704.76	142.750
705.09	143.150
705.42	142.600
705.76	144.350
706.09	142.400
706.42	144.500
706.76	143.300
707.09	144.350
707.42	143.750
707.76	144.200
708.09	142.200
708.42	143.000
708.75	143.900
709.09	142.750
709.42	142.750
709.75	143.550
710.09	143.600
710.42	143.350
710.75	143.100
711.08	142.900
711.42	143.600
711.75	144.100
712.08	143.900
712.41	142.150
712.75	144.150
713.08	143.550
713.41	143.600
713.74	144.000
714.08	142.900
714.41	142.450
714.74	142.500
715.07	144.250
715.41	142.750
715.74	143.350
716.07	142.350
716.40	143.150
716.73	143.150
717.06	142.050
717.40	142.200
717.73	142.400
718.06	144.000
718.39	144.000
718.72	144.100
719.05	143.850
719.39	143.000
719.72	143.200
720.05	142.800
720.38	143.300
720.71	143.200
721.04	142.150
721.37	143.200
721.71	141.700
722.04	142.050
722.37	143.200
722.70	143.150
723.03	143.200
723.36	142.250
723.69	142.900
724.02	141.900
724.35	142.050
724.68	143.750
725.01	141.550
725.35	143.250
725.68	142.700
726.01	143.850
726.34	144.450
726.67	143.200
727.00	142.800
727.33	141.550
727.66	143.200
727.99	142.450
728.32	142.950
728.65	143.650
728.98	143.750
729.31	143.100
729.64	143.000
729.97	142.250
730.30	143.200
730.63	142.700
730.96	142.250
731.29	142.200
731.62	142.500
731.95	143.900
732.28	144.000
732.61	143.650
732.94	143.200
733.27	143.500
733.60	143.100
733.93	141.450
734.25	142.550
734.58	142.400
734.91	141.800
735.24	142.600
735.57	142.800
735.90	143.850
736.23	143.750
736.56	143.600
736.89	142.750
737.22	143.600
737.55	143.700
737.87	143.800
738.20	143.350
738.53	142.250
738.86	142.550
739.19	142.050
739.52	143.750
739.85	142.750
740.17	143.050
740.50	142.600
740.83	143.050
741.16	141.950
741.49	144.500
741.82	142.600
742.14	143.200
742.47	143.650
742.80	142.550
743.13	141.800
743.46	143.900
743.78	143.100
744.11	142.300
744.44	143.600
744.77	143.700
745.10	142.300
745.42	142.650
745.75	142.750
746.08	143.550
746.41	142.750
746.73	142.850
747.06	143.300
747.39	142.950
747.72	143.350
748.04	143.350
748.37	142.650
748.70	142.000
749.02	143.400
749.35	143.650
749.68	142.800
750.01	142.950
750.33	144.850
750.66	143.600
750.99	143.800
751.31	142.800
751.64	141.200
751.97	142.550
752.29	143.800
752.62	142.450
752.95	143.000
753.27	142.650
753.60	143.450
753.93	143.050
754.25	143.300
754.58	142.150
754.91	143.550
755.23	144.000
755.56	147.600
755.88	144.450
756.21	143.900
756.54	142.300
756.86	142.500
757.19	142.400
757.51	143.000
757.84	142.000
758.17	143.000
758.49	142.700
758.82	141.950
759.14	142.400
759.47	142.500
759.79	143.650
760.12	142.900
760.44	143.000
760.77	142.650
761.09	142.900
761.42	142.750
761.75	144.700
762.07	143.400
762.40	142.750
762.72	143.350
763.05	143.100
763.37	143.950
763.70	141.650
764.02	144.150
764.35	141.500
764.67	142.000
764.99	144.100
765.32	142.000
765.64	144.250
765.97	143.050
766.29	143.000
766.62	142.850
766.94	145.100
767.27	143.250
767.59	142.200
767.91	142.250
768.24	144.150
768.56	143.150
768.89	143.400
769.21	142.850
769.54	143.500
769.86	142.550
770.18	142.850
770.51	141.850
770.83	142.100
771.15	142.250
771.48	142.500
771.80	143.050
772.13	143.300
772.45	142.650
772.77	142.700
773.10	141.500
773.42	142.600
773.74	142.100
774.07	142.200
774.39	142.950
774.71	142.500
775.04	143.650
775.36	142.550
775.68	142.100
776.01	141.650
776.33	142.950
776.65	143.650
776.97	141.750
777.30	143.250
777.62	141.950
777.94	143.600
778.26	142.050
778.59	142.100
778.91	141.700
779.23	142.400
779.55	142.100
779.88	142.700
780.20	142.600
780.52	141.550
780.84	142.950
781.17	142.200
781.49	142.800
781.81	143.200
782.13	142.200
782.45	143.000
782.78	142.550
783.10	143.050
783.42	143.350
783.74	142.250
784.06	141.950
784.39	141.700
784.71	142.900
785.03	143.100
785.35	143.800
785.67	143.850
785.99	143.100
786.31	142.800
786.64	142.550
786.96	142.300
787.28	142.750
787.60	142.000
787.92	143.300
788.24	143.000
788.56	141.600
788.88	143.250
789.20	146.500
789.53	143.000
789.85	142.350
790.17	141.950
790.49	141.150
