OOIBase32 Version 2.0.6.5 Data File
++++++++++++++++++++++++++++++++++++
Date: 04-16-2021, 17:09:21
User: Valued Ocean Optics Customer
Spectrometer Serial Number: USB2E5007
Spectrometer Channel: Master
Integration Time (msec): 45
Spectra Averaged: 20
Boxcar Smoothing: 0
Correct for Electrical Dark: Disabled
Time Normalized: Disabled
Dual-beam Reference: Disabled
Reference Channel: Master
Temperature: Not acquired
Spectrometer Type: S2000
ADC Type: USB2000
Number of Pixels in File: 2048
Graph Title: 
>>>>>Begin Spectral Data<<<<<
340.15	0.000
340.52	130.050
340.90	132.400
341.27	133.700
341.64	134.600
342.01	137.700
342.38	137.950
342.76	139.250
343.13	140.400
343.50	139.850
343.87	140.000
344.24	140.400
344.61	140.650
344.98	140.550
345.36	140.550
345.73	141.700
346.10	141.050
346.47	140.200
346.84	139.800
347.21	140.050
347.58	141.100
347.96	142.350
348.33	140.300
348.70	140.000
349.07	141.350
349.44	141.400
349.81	144.450
350.18	142.950
350.55	142.600
350.92	142.250
351.30	142.550
351.67	142.850
352.04	143.100
352.41	142.350
352.78	144.850
353.15	143.750
353.52	143.300
353.89	145.550
354.26	143.250
354.63	143.350
355.00	144.900
355.37	145.100
355.75	143.300
356.12	142.800
356.49	143.900
356.86	144.400
357.23	145.500
357.60	144.550
357.97	144.000
358.34	145.250
358.71	146.400
359.08	143.650
359.45	145.150
359.82	144.950
360.19	144.550
360.56	145.600
360.93	145.600
361.30	145.700
361.67	144.300
362.04	145.200
362.41	145.900
362.78	144.900
363.15	147.200
363.52	146.850
363.89	146.100
364.26	145.100
364.63	145.250
365.00	145.800
365.37	144.650
365.74	145.050
366.11	146.200
366.48	146.700
366.85	144.950
367.22	145.100
367.59	148.450
367.96	144.250
368.33	145.050
368.70	145.950
369.07	146.400
369.44	146.650
369.81	147.400
370.18	147.100
370.55	146.350
370.92	146.100
371.29	147.400
371.66	147.400
372.03	148.250
372.40	147.000
372.77	147.250
373.13	146.300
373.50	147.950
373.87	146.950
374.24	147.650
374.61	148.000
374.98	147.400
375.35	148.600
375.72	147.450
376.09	148.300
376.46	147.400
376.83	146.650
377.20	147.300
377.56	148.150
377.93	146.800
378.30	148.650
378.67	147.450
379.04	147.700
379.41	147.950
379.78	149.100
380.15	150.250
380.51	147.150
380.88	148.350
381.25	148.100
381.62	149.650
381.99	147.150
382.36	147.550
382.73	147.150
383.09	149.550
383.46	148.600
383.83	148.300
384.20	149.100
384.57	149.300
384.94	149.650
385.31	148.150
385.67	149.900
386.04	148.800
386.41	149.250
386.78	148.050
387.15	150.700
387.51	150.450
387.88	149.200
388.25	149.200
388.62	149.650
388.99	149.350
389.36	150.700
389.72	149.750
390.09	151.100
390.46	149.850
390.83	150.400
391.19	148.850
391.56	150.050
391.93	149.150
392.30	150.750
392.67	150.600
393.03	151.100
393.40	151.250
393.77	149.600
394.14	151.750
394.50	150.250
394.87	148.900
395.24	150.700
395.61	150.200
395.97	151.400
396.34	149.750
396.71	148.700
397.08	153.350
397.44	150.800
397.81	151.150
398.18	151.250
398.55	150.850
398.91	152.100
399.28	152.250
399.65	151.750
400.01	152.050
400.38	151.300
400.75	151.050
401.12	150.750
401.48	151.000
401.85	150.900
402.22	152.200
402.58	150.850
402.95	152.900
403.32	151.600
403.68	151.600
404.05	153.300
404.42	151.050
404.78	153.950
405.15	152.450
405.52	152.300
405.88	153.650
406.25	153.400
406.62	153.000
406.98	153.750
407.35	155.050
407.72	154.200
408.08	154.550
408.45	155.000
408.82	156.000
409.18	155.500
409.55	156.750
409.91	156.900
410.28	156.700
410.65	157.150
411.01	157.300
411.38	156.850
411.75	157.550
412.11	159.500
412.48	160.200
412.84	161.950
413.21	160.900
413.58	162.200
413.94	165.100
414.31	164.300
414.67	166.600
415.04	164.350
415.41	166.200
415.77	166.950
416.14	168.100
416.50	171.200
416.87	170.800
417.23	173.050
417.60	175.050
417.97	175.100
418.33	179.250
418.70	182.450
419.06	183.050
419.43	185.350
419.79	190.150
420.16	189.550
420.52	197.600
420.89	200.600
421.25	203.200
421.62	208.200
421.98	209.650
422.35	212.800
422.72	214.950
423.08	222.950
423.45	229.150
423.81	232.000
424.18	240.000
424.54	241.750
424.91	248.800
425.27	257.850
425.64	265.100
426.00	275.500
426.37	283.350
426.73	287.750
427.09	300.150
427.46	313.750
427.82	319.250
428.19	326.100
428.55	342.700
428.92	353.250
429.28	375.050
429.65	388.600
430.01	417.700
430.38	417.550
430.74	427.550
431.11	434.900
431.47	488.900
431.83	481.150
432.20	523.500
432.56	533.150
432.93	568.450
433.29	570.700
433.66	587.150
434.02	642.850
434.38	627.950
434.75	697.450
435.11	686.150
435.48	739.050
435.84	748.200
436.20	818.900
436.57	818.800
436.93	866.300
437.30	928.800
437.66	914.000
438.02	1029.750
438.39	1062.350
438.75	1083.850
439.12	1190.150
439.48	1218.350
439.84	1246.950
440.21	1302.400
440.57	1338.800
440.93	1546.150
441.30	1551.450
441.66	1583.900
442.02	1688.100
442.39	1685.450
442.75	1765.950
443.11	1797.650
443.48	1891.250
443.84	1966.150
444.20	1967.500
444.57	2220.850
444.93	2260.300
445.29	2420.800
445.66	2377.200
446.02	2495.050
446.38	2695.900
446.75	2731.150
447.11	2830.350
447.47	2759.350
447.84	2855.900
448.20	3050.700
448.56	3170.250
448.92	3233.750
449.29	3224.000
449.65	3242.450
450.01	3334.000
450.37	3260.450
450.74	3387.950
451.10	3481.350
451.46	3552.900
451.83	3381.150
452.19	3423.950
452.55	3275.050
452.91	3446.100
453.28	3470.400
453.64	3505.700
454.00	3439.050
454.36	3135.700
454.72	3348.200
455.09	3199.500
455.45	3228.600
455.81	3129.750
456.17	3032.700
456.54	2981.800
456.90	2944.100
457.26	2742.700
457.62	2756.900
457.98	2736.550
458.35	2698.450
458.71	2527.350
459.07	2498.200
459.43	2352.700
459.79	2340.300
460.16	2181.500
460.52	2127.200
460.88	2105.000
461.24	2103.250
461.60	2054.500
461.96	2060.450
462.33	1952.400
462.69	1868.600
463.05	1804.550
463.41	1807.200
463.77	1747.900
464.13	1653.050
464.49	1691.800
464.86	1630.400
465.22	1582.200
465.58	1557.000
465.94	1570.000
466.30	1485.600
466.66	1510.700
467.02	1496.350
467.38	1427.100
467.75	1387.850
468.11	1352.600
468.47	1316.100
468.83	1313.550
469.19	1294.100
469.55	1272.750
469.91	1215.450
470.27	1135.500
470.63	1162.650
470.99	1143.450
471.35	1092.650
471.72	1089.350
472.08	1067.200
472.44	1027.950
472.80	980.850
473.16	990.050
473.52	940.600
473.88	914.450
474.24	891.900
474.60	880.050
474.96	859.700
475.32	835.550
475.68	806.500
476.04	799.550
476.40	775.500
476.76	762.900
477.12	735.150
477.48	721.600
477.84	715.350
478.20	696.800
478.56	680.700
478.92	665.900
479.28	645.500
479.64	638.500
480.00	628.000
480.36	617.850
480.72	598.850
481.08	592.750
481.44	580.000
481.80	570.050
482.16	554.700
482.52	547.350
482.88	536.250
483.24	533.000
483.60	523.400
483.96	513.400
484.32	503.600
484.68	494.250
485.04	485.150
485.40	474.200
485.76	465.700
486.12	457.400
486.48	451.450
486.83	440.300
487.19	431.400
487.55	423.500
487.91	417.150
488.27	407.250
488.63	399.000
488.99	388.300
489.35	383.400
489.71	373.250
490.07	367.600
490.43	358.050
490.78	351.850
491.14	343.550
491.50	336.650
491.86	331.000
492.22	324.400
492.58	315.700
492.94	310.000
493.30	303.900
493.65	299.700
494.01	295.350
494.37	286.600
494.73	283.000
495.09	278.950
495.45	273.800
495.80	270.100
496.16	266.950
496.52	261.150
496.88	256.950
497.24	254.300
497.60	251.100
497.95	247.800
498.31	243.700
498.67	240.250
499.03	238.300
499.39	236.000
499.74	231.950
500.10	229.450
500.46	226.650
500.82	225.300
501.18	221.700
501.53	218.050
501.89	217.800
502.25	214.750
502.61	211.900
502.96	212.300
503.32	209.400
503.68	209.900
504.04	205.000
504.40	203.200
504.75	202.600
505.11	200.450
505.47	198.600
505.82	198.400
506.18	196.550
506.54	193.550
506.90	192.500
507.25	190.100
507.61	189.750
507.97	189.700
508.33	186.400
508.68	187.400
509.04	185.550
509.40	183.650
509.75	182.750
510.11	183.700
510.47	182.750
510.82	180.400
511.18	179.150
511.54	177.600
511.89	179.400
512.25	176.600
512.61	175.800
512.96	175.250
513.32	175.100
513.68	174.400
514.03	174.050
514.39	173.200
514.75	172.000
515.10	173.950
515.46	170.900
515.82	170.050
516.17	168.350
516.53	168.700
516.89	167.800
517.24	167.400
517.60	167.800
517.95	167.150
518.31	165.850
518.67	165.450
519.02	167.450
519.38	165.350
519.73	166.250
520.09	164.550
520.45	163.900
520.80	163.500
521.16	163.450
521.51	161.950
521.87	161.850
522.22	161.350
522.58	162.300
522.94	162.300
523.29	160.450
523.65	160.700
524.00	162.350
524.36	160.550
524.71	161.550
525.07	159.600
525.42	158.500
525.78	158.850
526.14	159.700
526.49	158.500
526.85	160.300
527.20	159.200
527.56	158.600
527.91	157.150
528.27	158.200
528.62	157.600
528.98	158.150
529.33	156.100
529.69	155.800
530.04	156.400
530.40	156.300
530.75	156.850
531.11	156.600
531.46	156.350
531.81	155.400
532.17	157.250
532.52	155.650
532.88	154.700
533.23	154.800
533.59	155.750
533.94	156.400
534.30	154.250
534.65	155.300
535.01	154.500
535.36	155.100
535.71	154.300
536.07	154.450
536.42	154.200
536.78	155.900
537.13	153.950
537.48	154.900
537.84	154.750
538.19	156.300
538.55	155.300
538.90	158.550
539.25	159.400
539.61	159.400
539.96	161.700
540.32	160.350
540.67	156.850
541.02	158.900
541.38	158.000
541.73	157.950
542.08	157.350
542.44	157.600
542.79	157.850
543.15	157.400
543.50	159.600
543.85	160.900
544.21	161.750
544.56	161.350
544.91	160.500
545.27	157.600
545.62	156.450
545.97	156.100
546.32	155.850
546.68	154.000
547.03	153.000
547.38	154.050
547.74	152.700
548.09	153.100
548.44	151.750
548.80	152.000
549.15	151.800
549.50	151.800
549.85	154.400
550.21	151.400
550.56	152.450
550.91	151.850
551.26	151.200
551.62	151.450
551.97	149.900
552.32	150.950
552.67	150.050
553.03	148.750
553.38	150.100
553.73	150.650
554.08	150.550
554.44	149.050
554.79	150.450
555.14	149.750
555.49	151.250
555.85	151.400
556.20	149.300
556.55	150.500
556.90	149.600
557.25	150.250
557.61	150.600
557.96	150.050
558.31	149.300
558.66	148.450
559.01	150.900
559.36	148.450
559.72	149.350
560.07	149.750
560.42	148.750
560.77	148.850
561.12	149.250
561.47	149.500
561.83	148.700
562.18	149.800
562.53	149.100
562.88	149.650
563.23	150.950
563.58	149.350
563.93	148.700
564.28	152.350
564.64	148.950
564.99	148.500
565.34	149.600
565.69	150.250
566.04	148.300
566.39	149.100
566.74	149.500
567.09	149.450
567.44	150.700
567.79	149.000
568.14	149.250
568.50	147.900
568.85	148.400
569.20	148.150
569.55	149.350
569.90	149.350
570.25	148.000
570.60	148.050
570.95	148.550
571.30	149.300
571.65	146.500
572.00	146.700
572.35	147.850
572.70	148.250
573.05	148.600
573.40	148.250
573.75	147.250
574.10	148.300
574.45	147.950
574.80	149.300
575.15	148.350
575.50	149.000
575.85	147.200
576.20	148.450
576.55	146.500
576.90	148.900
577.25	149.300
577.60	148.000
577.95	148.900
578.30	149.350
578.65	148.950
579.00	147.700
579.35	149.450
579.70	149.100
580.05	148.100
580.40	148.100
580.74	149.800
581.09	149.200
581.44	149.050
581.79	149.350
582.14	148.650
582.49	149.050
582.84	148.550
583.19	148.600
583.54	149.600
583.89	148.450
584.24	148.000
584.58	148.400
584.93	148.500
585.28	149.000
585.63	148.250
585.98	148.650
586.33	149.050
586.68	148.650
587.03	149.000
587.37	148.400
587.72	147.350
588.07	146.050
588.42	148.850
588.77	147.200
589.12	147.750
589.46	146.950
589.81	147.500
590.16	146.650
590.51	147.050
590.86	147.150
591.21	147.100
591.55	148.250
591.90	147.000
592.25	148.000
592.60	145.700
592.95	146.900
593.29	147.000
593.64	147.850
593.99	147.550
594.34	146.950
594.68	147.650
595.03	146.450
595.38	146.750
595.73	146.450
596.07	147.950
596.42	146.150
596.77	146.700
597.12	147.600
597.46	146.100
597.81	146.650
598.16	146.200
598.51	148.450
598.85	146.450
599.20	145.900
599.55	146.850
599.90	146.900
600.24	146.600
600.59	146.200
600.94	146.500
601.28	146.350
601.63	146.350
601.98	146.050
602.32	145.500
602.67	146.200
603.02	147.150
603.36	147.250
603.71	145.750
604.06	145.650
604.40	144.850
604.75	147.600
605.10	146.300
605.44	148.250
605.79	147.600
606.14	146.050
606.48	147.050
606.83	145.300
607.17	146.700
607.52	147.900
607.87	146.850
608.21	148.800
608.56	148.800
608.90	152.800
609.25	153.950
609.60	154.550
609.94	153.800
610.29	154.250
610.63	150.650
610.98	150.750
611.33	150.650
611.67	151.000
612.02	148.900
612.36	148.450
612.71	148.400
613.05	148.800
613.40	148.950
613.74	147.550
614.09	147.650
614.44	146.200
614.78	145.800
615.13	146.400
615.47	145.800
615.82	147.400
616.16	146.400
616.51	147.250
616.85	145.850
617.20	146.350
617.54	147.100
617.89	147.550
618.23	146.000
618.58	146.700
618.92	145.250
619.27	145.900
619.61	145.200
619.96	145.000
620.30	146.400
620.64	147.250
620.99	146.850
621.33	146.400
621.68	147.000
622.02	146.800
622.37	146.900
622.71	145.850
623.06	146.750
623.40	147.350
623.74	144.900
624.09	146.700
624.43	145.900
624.78	144.450
625.12	144.700
625.46	146.100
625.81	146.250
626.15	145.850
626.50	145.600
626.84	145.900
627.18	147.800
627.53	145.350
627.87	145.300
628.21	145.650
628.56	146.700
628.90	145.750
629.25	146.200
629.59	145.750
629.93	145.400
630.28	146.500
630.62	144.350
630.96	144.750
631.31	145.500
631.65	145.400
631.99	144.750
632.34	144.150
632.68	144.600
633.02	145.100
633.36	145.700
633.71	145.500
634.05	145.300
634.39	143.650
634.74	144.200
635.08	144.850
635.42	144.200
635.76	145.550
636.11	144.050
636.45	146.800
636.79	145.250
637.14	144.450
637.48	144.850
637.82	144.550
638.16	145.400
638.50	144.000
638.85	144.000
639.19	146.700
639.53	146.050
639.87	144.250
640.22	144.750
640.56	142.900
640.90	144.100
641.24	144.950
641.58	144.450
641.93	144.350
642.27	144.100
642.61	145.750
642.95	144.650
643.29	144.650
643.64	145.250
643.98	145.150
644.32	146.150
644.66	144.700
645.00	144.950
645.34	146.850
645.68	146.050
646.03	145.550
646.37	144.700
646.71	144.250
647.05	145.650
647.39	144.450
647.73	145.500
648.07	145.600
648.42	146.000
648.76	145.750
649.10	144.850
649.44	146.850
649.78	144.100
650.12	145.700
650.46	145.150
650.80	144.650
651.14	145.600
651.48	144.300
651.82	145.400
652.16	146.150
652.51	144.650
652.85	142.800
653.19	144.900
653.53	145.100
653.87	143.900
654.21	144.850
654.55	145.500
654.89	145.050
655.23	144.850
655.57	145.500
655.91	145.000
656.25	145.750
656.59	143.450
656.93	143.550
657.27	143.850
657.61	147.050
657.95	143.900
658.29	142.900
658.63	144.000
658.97	145.850
659.31	146.850
659.65	144.200
659.99	145.350
660.33	144.550
660.67	144.000
661.01	144.700
661.35	144.950
661.68	145.750
662.02	144.300
662.36	143.950
662.70	144.550
663.04	143.000
663.38	144.950
663.72	144.550
664.06	144.000
664.40	144.550
664.74	143.850
665.08	143.450
665.42	144.550
665.75	145.150
666.09	143.950
666.43	146.750
666.77	144.250
667.11	142.600
667.45	143.800
667.79	143.300
668.12	144.500
668.46	144.750
668.80	144.000
669.14	144.650
669.48	145.250
669.82	144.150
670.16	145.500
670.49	144.150
670.83	144.750
671.17	143.650
671.51	144.600
671.85	144.100
672.18	145.200
672.52	143.900
672.86	144.600
673.20	144.050
673.54	145.100
673.87	144.450
674.21	145.250
674.55	144.550
674.89	144.950
675.22	144.250
675.56	144.550
675.90	144.850
676.24	143.900
676.57	144.600
676.91	145.350
677.25	144.100
677.59	143.550
677.92	143.200
678.26	143.200
678.60	144.800
678.93	144.650
679.27	144.700
679.61	143.000
679.95	143.300
680.28	144.400
680.62	143.850
680.96	145.150
681.29	144.750
681.63	144.800
681.97	143.550
682.30	144.300
682.64	145.000
682.98	143.200
683.31	144.050
683.65	144.400
683.99	144.150
684.32	142.700
684.66	143.500
685.00	143.500
685.33	145.200
685.67	144.300
686.00	143.150
686.34	144.400
686.68	145.500
687.01	144.600
687.35	143.850
687.68	144.450
688.02	143.350
688.36	144.700
688.69	144.100
689.03	143.450
689.36	143.200
689.70	142.750
690.03	144.150
690.37	143.100
690.71	143.750
691.04	144.250
691.38	144.500
691.71	143.700
692.05	143.300
692.38	143.950
692.72	142.750
693.05	143.600
693.39	142.950
693.72	144.550
694.06	142.800
694.39	142.300
694.73	142.800
695.06	143.150
695.40	143.050
695.73	142.100
696.07	144.250
696.40	143.450
696.74	145.050
697.07	142.950
697.41	143.500
697.74	145.400
698.08	143.100
698.41	143.400
698.74	143.900
699.08	144.350
699.41	144.500
699.75	144.700
700.08	142.500
700.42	143.150
700.75	143.250
701.08	144.100
701.42	143.450
701.75	143.800
702.09	144.800
702.42	146.150
702.75	143.750
703.09	143.200
703.42	143.750
703.75	143.700
704.09	143.250
704.42	144.750
704.76	143.950
705.09	144.350
705.42	143.150
705.76	144.300
706.09	144.250
706.42	145.650
706.76	145.100
707.09	143.250
707.42	143.000
707.76	143.700
708.09	143.450
708.42	142.150
708.75	144.700
709.09	143.750
709.42	143.650
709.75	144.050
710.09	145.250
710.42	144.250
710.75	142.500
711.08	143.750
711.42	144.000
711.75	144.450
712.08	144.250
712.41	142.800
712.75	143.650
713.08	143.650
713.41	143.300
713.74	143.700
714.08	144.900
714.41	143.300
714.74	143.550
715.07	144.300
715.41	142.750
715.74	143.750
716.07	143.300
716.40	143.950
716.73	143.150
717.06	142.500
717.40	143.800
717.73	143.350
718.06	143.700
718.39	143.800
718.72	143.350
719.05	142.900
719.39	144.900
719.72	144.300
720.05	143.400
720.38	143.750
720.71	143.200
721.04	142.200
721.37	143.150
721.71	143.300
722.04	142.100
722.37	143.900
722.70	143.450
723.03	144.900
723.36	142.450
723.69	142.100
724.02	143.750
724.35	142.750
724.68	144.700
725.01	143.600
725.35	143.750
725.68	143.400
726.01	143.200
726.34	144.100
726.67	143.350
727.00	143.700
727.33	142.950
727.66	143.950
727.99	144.050
728.32	143.500
728.65	143.650
728.98	143.500
729.31	143.800
729.64	144.300
729.97	141.550
730.30	143.800
730.63	143.250
730.96	141.900
731.29	142.200
731.62	142.550
731.95	144.750
732.28	144.850
732.61	144.400
732.94	144.800
733.27	143.450
733.60	143.150
733.93	142.350
734.25	142.750
734.58	143.700
734.91	144.150
735.24	143.450
735.57	143.400
735.90	143.600
736.23	143.850
736.56	144.050
736.89	142.550
737.22	141.950
737.55	142.050
737.87	144.800
738.20	142.400
738.53	142.750
738.86	144.000
739.19	142.750
739.52	144.250
739.85	143.750
740.17	143.600
740.50	143.000
740.83	143.200
741.16	142.800
741.49	142.850
741.82	144.250
742.14	142.800
742.47	143.250
742.80	143.600
743.13	142.450
743.46	143.650
743.78	144.450
744.11	143.150
744.44	144.900
744.77	143.800
745.10	144.350
745.42	141.800
745.75	143.050
746.08	143.150
746.41	144.350
746.73	143.100
747.06	144.500
747.39	142.750
747.72	142.550
748.04	143.050
748.37	143.450
748.70	142.200
749.02	143.500
749.35	144.100
749.68	142.800
750.01	143.150
750.33	145.100
750.66	142.700
750.99	143.000
751.31	142.350
751.64	142.650
751.97	142.200
752.29	143.850
752.62	142.800
752.95	143.150
753.27	143.400
753.60	143.800
753.93	142.900
754.25	143.600
754.58	144.000
754.91	144.050
755.23	144.850
755.56	147.050
755.88	144.600
756.21	143.400
756.54	143.000
756.86	143.300
757.19	142.900
757.51	142.700
757.84	143.500
758.17	144.150
758.49	143.200
758.82	143.450
759.14	143.400
759.47	143.100
759.79	144.050
760.12	143.250
760.44	143.600
760.77	142.600
761.09	142.850
761.42	144.650
761.75	144.350
762.07	143.150
762.40	143.650
762.72	143.500
763.05	143.550
763.37	144.150
763.70	142.050
764.02	143.050
764.35	142.100
764.67	142.900
764.99	143.300
765.32	142.200
765.64	143.250
765.97	142.150
766.29	142.300
766.62	142.700
766.94	144.650
767.27	142.700
767.59	142.900
767.91	143.050
768.24	143.950
768.56	142.800
768.89	142.800
769.21	142.800
769.54	143.000
769.86	144.000
770.18	143.000
770.51	143.700
770.83	142.000
771.15	142.850
771.48	142.700
771.80	143.100
772.13	143.850
772.45	142.550
772.77	143.600
773.10	142.550
773.42	143.450
773.74	142.350
774.07	142.100
774.39	142.500
774.71	142.350
775.04	143.650
775.36	141.800
775.68	141.900
776.01	141.350
776.33	141.850
776.65	142.050
776.97	141.700
777.30	143.550
777.62	143.050
777.94	143.100
778.26	142.300
778.59	141.900
778.91	142.100
779.23	143.300
779.55	142.850
779.88	142.700
780.20	142.250
780.52	141.750
780.84	141.600
781.17	143.650
781.49	144.050
781.81	143.400
782.13	142.950
782.45	144.050
782.78	142.650
783.10	143.200
783.42	143.350
783.74	142.350
784.06	142.350
784.39	142.050
784.71	144.200
785.03	142.950
785.35	144.150
785.67	143.600
785.99	142.100
786.31	141.900
786.64	142.050
786.96	143.300
787.28	142.650
787.60	140.950
787.92	142.400
788.24	142.850
788.56	143.050
788.88	143.450
789.20	147.400
789.53	143.300
789.85	143.650
790.17	143.150
