OOIBase32 Version 2.0.6.5 Data File
++++++++++++++++++++++++++++++++++++
Date: 04-16-2021, 17:10:59
User: Valued Ocean Optics Customer
Spectrometer Serial Number: USB2E5007
Spectrometer Channel: Master
Integration Time (msec): 45
Spectra Averaged: 20
Boxcar Smoothing: 0
Correct for Electrical Dark: Disabled
Time Normalized: Disabled
Dual-beam Reference: Disabled
Reference Channel: Master
Temperature: Not acquired
Spectrometer Type: S2000
ADC Type: USB2000
Number of Pixels in File: 2048
Graph Title: 
>>>>>Begin Spectral Data<<<<<
340.15	0.000
340.52	129.150
340.90	131.150
341.27	132.550
341.64	133.400
342.01	137.250
342.38	139.250
342.76	139.850
343.13	140.450
343.50	140.900
343.87	141.000
344.24	140.000
344.61	141.850
344.98	141.050
345.36	138.700
345.73	139.500
346.10	139.950
346.47	142.000
346.84	139.150
347.21	140.450
347.58	139.850
347.96	142.950
348.33	139.950
348.70	141.200
349.07	140.550
349.44	140.150
349.81	142.250
350.18	141.800
350.55	141.100
350.92	140.950
351.30	142.100
351.67	141.550
352.04	141.050
352.41	141.050
352.78	142.450
353.15	142.250
353.52	142.000
353.89	143.500
354.26	142.500
354.63	142.050
355.00	142.550
355.37	142.300
355.75	141.150
356.12	142.400
356.49	143.250
356.86	144.250
357.23	141.500
357.60	143.150
357.97	142.700
358.34	142.700
358.71	144.600
359.08	142.150
359.45	142.250
359.82	143.900
360.19	144.550
360.56	142.550
360.93	142.950
361.30	144.100
361.67	143.450
362.04	143.950
362.41	143.550
362.78	144.100
363.15	144.050
363.52	144.850
363.89	144.350
364.26	143.300
364.63	144.500
365.00	143.600
365.37	143.550
365.74	143.950
366.11	144.900
366.48	145.100
366.85	143.100
367.22	145.050
367.59	145.800
367.96	143.450
368.33	144.200
368.70	145.100
369.07	144.750
369.44	144.900
369.81	144.750
370.18	145.000
370.55	143.550
370.92	145.100
371.29	143.850
371.66	146.350
372.03	145.200
372.40	146.350
372.77	145.650
373.13	143.950
373.50	145.900
373.87	144.950
374.24	146.000
374.61	145.100
374.98	145.350
375.35	146.550
375.72	145.500
376.09	145.400
376.46	145.100
376.83	145.050
377.20	145.500
377.56	145.800
377.93	145.350
378.30	145.750
378.67	145.150
379.04	146.250
379.41	146.450
379.78	146.300
380.15	148.050
380.51	146.350
380.88	147.250
381.25	146.050
381.62	147.900
381.99	145.450
382.36	145.100
382.73	147.450
383.09	146.800
383.46	146.350
383.83	146.100
384.20	146.700
384.57	147.550
384.94	146.900
385.31	145.800
385.67	148.500
386.04	145.250
386.41	147.000
386.78	146.100
387.15	147.900
387.51	147.350
387.88	146.700
388.25	146.400
388.62	147.350
388.99	146.800
389.36	147.350
389.72	145.950
390.09	148.850
390.46	147.900
390.83	146.900
391.19	146.800
391.56	146.300
391.93	146.050
392.30	147.350
392.67	148.200
393.03	147.300
393.40	148.000
393.77	147.250
394.14	147.200
394.50	148.050
394.87	148.100
395.24	148.050
395.61	147.000
395.97	147.850
396.34	147.300
396.71	146.800
397.08	148.850
397.44	148.050
397.81	147.900
398.18	149.100
398.55	148.400
398.91	147.800
399.28	148.250
399.65	148.550
400.01	150.100
400.38	147.800
400.75	148.600
401.12	147.450
401.48	147.250
401.85	148.450
402.22	148.800
402.58	148.450
402.95	148.700
403.32	148.550
403.68	148.350
404.05	147.750
404.42	147.850
404.78	149.650
405.15	149.200
405.52	148.550
405.88	148.600
406.25	148.000
406.62	148.950
406.98	149.400
407.35	149.200
407.72	148.100
408.08	149.950
408.45	149.550
408.82	149.200
409.18	149.600
409.55	150.250
409.91	149.800
410.28	148.600
410.65	149.700
411.01	149.850
411.38	148.950
411.75	149.350
412.11	150.950
412.48	151.550
412.84	151.700
413.21	150.050
413.58	151.950
413.94	152.000
414.31	152.700
414.67	152.650
415.04	151.600
415.41	153.200
415.77	153.950
416.14	153.700
416.50	153.950
416.87	153.750
417.23	155.200
417.60	156.350
417.97	156.100
418.33	156.900
418.70	158.200
419.06	158.450
419.43	159.550
419.79	159.150
420.16	158.700
420.52	161.200
420.89	163.550
421.25	163.950
421.62	165.800
421.98	166.400
422.35	166.850
422.72	166.350
423.08	169.650
423.45	174.600
423.81	173.650
424.18	174.400
424.54	176.350
424.91	179.400
425.27	181.600
425.64	184.450
426.00	188.750
426.37	190.750
426.73	192.550
427.09	197.100
427.46	201.100
427.82	203.850
428.19	208.150
428.55	210.900
428.92	215.700
429.28	222.400
429.65	227.650
430.01	236.950
430.38	235.400
430.74	241.500
431.11	243.050
431.47	260.650
431.83	258.600
432.20	274.300
432.56	276.450
432.93	290.250
433.29	291.650
433.66	300.200
434.02	321.850
434.38	313.050
434.75	335.650
435.11	334.800
435.48	353.750
435.84	355.900
436.20	382.550
436.57	384.450
436.93	402.700
437.30	422.250
437.66	420.800
438.02	463.050
438.39	473.500
438.75	482.950
439.12	522.800
439.48	534.400
439.84	544.750
440.21	569.050
440.57	584.100
440.93	660.650
441.30	666.900
441.66	680.550
442.02	727.650
442.39	726.750
442.75	765.450
443.11	779.750
443.48	824.750
443.84	857.500
444.20	867.650
444.57	977.650
444.93	1001.000
445.29	1085.600
445.66	1075.950
446.02	1134.600
446.38	1238.150
446.75	1270.500
447.11	1328.750
447.47	1307.050
447.84	1373.550
448.20	1480.900
448.56	1559.150
448.92	1611.700
449.29	1625.200
449.65	1647.400
450.01	1721.650
450.37	1702.850
450.74	1788.400
451.10	1860.700
451.46	1920.750
451.83	1845.200
452.19	1889.200
452.55	1818.950
452.91	1939.300
453.28	1965.900
453.64	2001.900
454.00	1986.850
454.36	1818.200
454.72	1959.100
455.09	1876.950
455.45	1902.900
455.81	1845.650
456.17	1794.350
456.54	1774.650
456.90	1763.250
457.26	1632.600
457.62	1642.700
457.98	1628.150
458.35	1602.850
458.71	1499.550
459.07	1473.100
459.43	1384.000
459.79	1374.150
460.16	1281.500
460.52	1250.400
460.88	1231.750
461.24	1226.750
461.60	1188.200
461.96	1189.500
462.33	1122.900
462.69	1076.200
463.05	1032.450
463.41	1036.650
463.77	1003.950
464.13	954.200
464.49	977.600
464.86	941.400
465.22	914.550
465.58	899.950
465.94	909.250
466.30	864.900
466.66	881.500
467.02	871.700
467.38	839.700
467.75	822.050
468.11	800.550
468.47	789.450
468.83	789.050
469.19	775.250
469.55	766.650
469.91	737.650
470.27	695.350
470.63	711.250
470.99	701.500
471.35	676.150
471.72	670.700
472.08	660.000
472.44	637.950
472.80	610.100
473.16	615.350
473.52	590.800
473.88	577.500
474.24	563.100
474.60	557.550
474.96	542.900
475.32	524.800
475.68	512.450
476.04	505.350
476.40	493.100
476.76	485.900
477.12	467.250
477.48	460.250
477.84	455.600
478.20	443.650
478.56	434.750
478.92	423.550
479.28	417.600
479.64	409.750
480.00	404.850
480.36	400.400
480.72	390.150
481.08	382.000
481.44	379.750
481.80	372.450
482.16	366.200
482.52	360.650
482.88	357.000
483.24	352.650
483.60	349.800
483.96	342.600
484.32	339.350
484.68	334.000
485.04	329.350
485.40	325.050
485.76	320.650
486.12	314.950
486.48	311.100
486.83	305.250
487.19	299.250
487.55	296.450
487.91	294.500
488.27	286.800
488.63	285.950
488.99	278.150
489.35	275.300
489.71	269.500
490.07	266.050
490.43	259.550
490.78	257.700
491.14	255.600
491.50	249.700
491.86	244.550
492.22	242.150
492.58	237.550
492.94	234.250
493.30	232.200
493.65	229.250
494.01	227.200
494.37	221.600
494.73	220.350
495.09	216.600
495.45	214.200
495.80	212.250
496.16	209.400
496.52	205.400
496.88	204.250
497.24	200.450
497.60	201.850
497.95	198.600
498.31	196.750
498.67	193.850
499.03	192.300
499.39	190.800
499.74	189.600
500.10	189.100
500.46	187.750
500.82	185.400
501.18	185.750
501.53	182.750
501.89	182.400
502.25	182.900
502.61	180.050
502.96	182.050
503.32	177.250
503.68	179.100
504.04	176.950
504.40	174.100
504.75	173.700
505.11	173.900
505.47	173.150
505.82	173.400
506.18	170.350
506.54	170.200
506.90	169.250
507.25	169.800
507.61	168.950
507.97	168.250
508.33	166.650
508.68	168.400
509.04	165.750
509.40	165.400
509.75	163.300
510.11	164.150
510.47	163.750
510.82	163.700
511.18	161.150
511.54	161.600
511.89	162.150
512.25	161.450
512.61	160.250
512.96	161.150
513.32	159.750
513.68	159.550
514.03	158.700
514.39	159.800
514.75	158.650
515.10	159.900
515.46	156.700
515.82	156.450
516.17	155.900
516.53	156.150
516.89	156.950
517.24	156.200
517.60	156.150
517.95	155.350
518.31	154.350
518.67	155.450
519.02	154.950
519.38	154.900
519.73	152.950
520.09	153.900
520.45	154.150
520.80	154.700
521.16	153.850
521.51	153.650
521.87	153.100
522.22	152.750
522.58	153.850
522.94	152.350
523.29	151.800
523.65	152.250
524.00	154.150
524.36	153.400
524.71	151.600
525.07	152.000
525.42	151.800
525.78	151.500
526.14	150.500
526.49	151.450
526.85	151.700
527.20	152.100
527.56	152.250
527.91	151.750
528.27	149.850
528.62	151.700
528.98	150.800
529.33	150.050
529.69	150.500
530.04	150.400
530.40	149.750
530.75	149.450
531.11	150.650
531.46	149.750
531.81	150.400
532.17	149.650
532.52	149.100
532.88	148.850
533.23	150.300
533.59	149.900
533.94	150.000
534.30	149.800
534.65	150.650
535.01	149.050
535.36	150.750
535.71	148.050
536.07	149.600
536.42	151.450
536.78	148.600
537.13	148.650
537.48	150.750
537.84	150.350
538.19	151.650
538.55	151.200
538.90	153.800
539.25	155.100
539.61	155.850
539.96	157.450
540.32	155.650
540.67	155.400
541.02	155.100
541.38	154.700
541.73	154.350
542.08	154.300
542.44	153.100
542.79	153.800
543.15	153.750
543.50	156.150
543.85	157.350
544.21	159.150
544.56	158.100
544.91	156.750
545.27	153.350
545.62	152.500
545.97	151.850
546.32	151.950
546.68	151.000
547.03	150.450
547.38	151.200
547.74	150.300
548.09	150.650
548.44	148.600
548.80	149.000
549.15	148.600
549.50	147.350
549.85	149.700
550.21	148.750
550.56	148.250
550.91	149.800
551.26	148.050
551.62	148.750
551.97	147.700
552.32	147.200
552.67	147.650
553.03	148.250
553.38	147.500
553.73	146.450
554.08	146.100
554.44	145.900
554.79	147.150
555.14	147.850
555.49	145.600
555.85	146.600
556.20	145.750
556.55	145.100
556.90	145.400
557.25	146.400
557.61	146.500
557.96	146.100
558.31	146.250
558.66	146.500
559.01	146.750
559.36	145.900
559.72	145.100
560.07	146.000
560.42	144.850
560.77	146.250
561.12	146.400
561.47	146.100
561.83	145.300
562.18	146.050
562.53	144.850
562.88	146.600
563.23	147.450
563.58	145.600
563.93	145.400
564.28	148.150
564.64	146.150
564.99	146.100
565.34	146.250
565.69	148.200
566.04	146.050
566.39	145.850
566.74	145.450
567.09	147.500
567.44	146.400
567.79	145.650
568.14	146.700
568.50	145.800
568.85	146.300
569.20	145.100
569.55	146.450
569.90	146.650
570.25	146.100
570.60	146.300
570.95	145.450
571.30	145.950
571.65	144.450
572.00	144.900
572.35	146.500
572.70	146.350
573.05	143.900
573.40	144.850
573.75	145.350
574.10	146.100
574.45	145.650
574.80	145.850
575.15	145.250
575.50	146.350
575.85	145.750
576.20	145.700
576.55	146.150
576.90	146.650
577.25	147.000
577.60	147.050
577.95	146.000
578.30	147.150
578.65	146.600
579.00	145.500
579.35	146.700
579.70	146.050
580.05	146.050
580.40	146.900
580.74	148.000
581.09	146.200
581.44	146.150
581.79	147.250
582.14	146.600
582.49	146.750
582.84	147.300
583.19	144.400
583.54	147.100
583.89	147.200
584.24	145.450
584.58	145.950
584.93	146.900
585.28	147.350
585.63	146.800
585.98	146.850
586.33	145.750
586.68	146.650
587.03	147.250
587.37	146.250
587.72	145.250
588.07	144.950
588.42	145.700
588.77	145.700
589.12	146.450
589.46	145.050
589.81	145.650
590.16	144.800
590.51	144.250
590.86	145.500
591.21	144.700
591.55	145.400
591.90	145.150
592.25	144.600
592.60	145.150
592.95	145.000
593.29	145.550
593.64	145.050
593.99	145.550
594.34	144.850
594.68	145.400
595.03	145.650
595.38	145.800
595.73	144.200
596.07	144.450
596.42	144.150
596.77	145.300
597.12	145.000
597.46	145.550
597.81	144.500
598.16	144.300
598.51	145.850
598.85	143.600
599.20	144.050
599.55	144.850
599.90	145.050
600.24	144.900
600.59	144.150
600.94	143.600
601.28	145.000
601.63	144.600
601.98	144.300
602.32	144.600
602.67	145.150
603.02	145.900
603.36	145.450
603.71	144.550
604.06	144.000
604.40	144.900
604.75	145.800
605.10	144.900
605.44	145.500
605.79	145.200
606.14	144.250
606.48	145.350
606.83	145.000
607.17	145.200
607.52	146.450
607.87	145.500
608.21	146.400
608.56	147.600
608.90	152.250
609.25	154.000
609.60	155.100
609.94	154.350
610.29	153.000
610.63	150.400
610.98	150.250
611.33	149.350
611.67	148.550
612.02	149.600
612.36	148.550
612.71	147.050
613.05	147.050
613.40	146.850
613.74	146.450
614.09	146.000
614.44	144.950
614.78	145.600
615.13	145.900
615.47	146.250
615.82	144.250
616.16	144.400
616.51	145.950
616.85	145.350
617.20	144.200
617.54	146.700
617.89	145.450
618.23	143.650
618.58	144.700
618.92	144.600
619.27	145.350
619.61	144.450
619.96	144.550
620.30	146.050
620.64	145.650
620.99	144.650
621.33	145.200
621.68	146.400
622.02	145.850
622.37	145.100
622.71	143.450
623.06	144.650
623.40	146.050
623.74	145.650
624.09	145.850
624.43	144.700
624.78	143.550
625.12	143.900
625.46	144.400
625.81	144.450
626.15	144.700
626.50	145.800
626.84	144.350
627.18	145.600
627.53	145.450
627.87	144.050
628.21	144.350
628.56	145.100
628.90	143.600
629.25	144.650
629.59	144.250
629.93	144.850
630.28	144.200
630.62	144.250
630.96	144.450
631.31	144.150
631.65	143.300
631.99	144.300
632.34	144.600
632.68	143.450
633.02	142.700
633.36	144.650
633.71	143.950
634.05	144.300
634.39	143.700
634.74	143.800
635.08	144.100
635.42	142.750
635.76	142.400
636.11	143.000
636.45	146.950
636.79	144.550
637.14	143.850
637.48	144.500
637.82	143.150
638.16	144.500
638.50	143.100
638.85	142.750
639.19	144.450
639.53	144.250
639.87	142.700
640.22	143.600
640.56	143.450
640.90	142.300
641.24	142.950
641.58	144.500
641.93	143.300
642.27	143.150
642.61	143.950
642.95	144.500
643.29	143.800
643.64	143.100
643.98	143.800
644.32	142.500
644.66	142.100
645.00	143.500
645.34	144.050
645.68	142.950
646.03	145.500
646.37	143.350
646.71	143.400
647.05	144.450
647.39	143.050
647.73	143.850
648.07	143.250
648.42	143.500
648.76	143.500
649.10	143.550
649.44	145.200
649.78	143.250
650.12	144.900
650.46	143.000
650.80	144.600
651.14	145.150
651.48	143.850
651.82	143.500
652.16	144.400
652.51	143.800
652.85	141.700
653.19	143.200
653.53	144.550
653.87	143.350
654.21	143.900
654.55	142.450
654.89	143.600
655.23	144.100
655.57	144.500
655.91	143.500
656.25	144.650
656.59	142.200
656.93	143.000
657.27	142.400
657.61	145.000
657.95	143.050
658.29	143.350
658.63	144.000
658.97	143.750
659.31	143.100
659.65	143.250
659.99	143.750
660.33	144.350
660.67	143.150
661.01	144.500
661.35	144.200
661.68	144.500
662.02	143.600
662.36	142.850
662.70	143.650
663.04	143.300
663.38	144.050
663.72	142.950
664.06	143.800
664.40	142.950
664.74	143.600
665.08	144.650
665.42	143.750
665.75	143.450
666.09	142.450
666.43	145.600
666.77	143.400
667.11	143.600
667.45	143.900
667.79	143.550
668.12	143.150
668.46	142.350
668.80	142.900
669.14	143.500
669.48	143.900
669.82	143.750
670.16	145.200
670.49	143.000
670.83	143.800
671.17	142.750
671.51	142.500
671.85	142.500
672.18	143.200
672.52	143.800
672.86	144.000
673.20	142.900
673.54	143.700
673.87	142.300
674.21	142.700
674.55	143.350
674.89	143.950
675.22	142.150
675.56	142.700
675.90	144.150
676.24	143.500
676.57	143.000
676.91	144.400
677.25	143.250
677.59	142.850
677.92	142.400
678.26	142.800
678.60	144.100
678.93	144.200
679.27	143.950
679.61	143.250
679.95	142.350
680.28	143.550
680.62	142.000
680.96	142.500
681.29	142.100
681.63	143.300
681.97	142.350
682.30	143.800
682.64	142.750
682.98	141.900
683.31	143.500
683.65	143.850
683.99	141.900
684.32	143.250
684.66	142.150
685.00	143.400
685.33	142.900
685.67	142.800
686.00	141.500
686.34	142.150
686.68	144.300
687.01	142.750
687.35	143.000
687.68	144.450
688.02	143.300
688.36	144.500
688.69	142.800
689.03	143.750
689.36	142.500
689.70	143.500
690.03	142.350
690.37	143.000
690.71	143.000
691.04	142.600
691.38	143.300
691.71	143.700
692.05	143.150
692.38	143.650
692.72	144.650
693.05	143.450
693.39	143.800
693.72	142.800
694.06	141.700
694.39	141.950
694.73	141.950
695.06	141.900
695.40	142.300
695.73	142.550
696.07	144.250
696.40	143.050
696.74	144.550
697.07	144.050
697.41	142.050
697.74	144.800
698.08	142.450
698.41	143.100
698.74	144.150
699.08	142.000
699.41	143.350
699.75	142.500
700.08	142.450
700.42	142.950
700.75	142.300
701.08	142.200
701.42	141.950
701.75	142.500
702.09	144.050
702.42	145.500
702.75	143.750
703.09	142.450
703.42	143.150
703.75	141.250
704.09	142.400
704.42	143.300
704.76	143.050
705.09	141.850
705.42	142.250
705.76	143.300
706.09	143.250
706.42	144.500
706.76	143.750
707.09	142.850
707.42	142.200
707.76	142.400
708.09	142.200
708.42	142.700
708.75	144.050
709.09	141.400
709.42	142.900
709.75	143.250
710.09	144.050
710.42	143.050
710.75	143.100
711.08	143.650
711.42	143.300
711.75	142.500
712.08	142.600
712.41	142.450
712.75	143.000
713.08	141.700
713.41	143.350
713.74	143.400
714.08	143.250
714.41	142.500
714.74	143.300
715.07	144.150
715.41	143.250
715.74	144.450
716.07	143.000
716.40	143.300
716.73	143.350
717.06	142.050
717.40	143.850
717.73	142.550
718.06	143.650
718.39	143.600
718.72	142.400
719.05	142.700
719.39	143.300
719.72	142.950
720.05	143.400
720.38	143.000
720.71	141.750
721.04	143.150
721.37	142.750
721.71	142.700
722.04	142.100
722.37	142.750
722.70	142.750
723.03	144.200
723.36	142.050
723.69	141.650
724.02	142.550
724.35	142.750
724.68	143.600
725.01	142.450
725.35	142.250
725.68	142.100
726.01	142.700
726.34	142.850
726.67	141.600
727.00	142.400
727.33	141.850
727.66	142.500
727.99	143.500
728.32	143.100
728.65	142.650
728.98	142.950
729.31	143.250
729.64	142.450
729.97	141.050
730.30	142.400
730.63	143.900
730.96	141.650
731.29	142.100
731.62	142.650
731.95	144.400
732.28	144.250
732.61	142.900
732.94	142.100
733.27	142.850
733.60	142.300
733.93	141.950
734.25	142.700
734.58	143.300
734.91	143.350
735.24	142.450
735.57	143.100
735.90	143.650
736.23	143.600
736.56	142.200
736.89	143.050
737.22	143.500
737.55	142.600
737.87	144.200
738.20	142.400
738.53	142.200
738.86	143.500
739.19	143.550
739.52	144.650
739.85	141.950
740.17	142.400
740.50	141.600
740.83	142.700
741.16	143.300
741.49	143.750
741.82	142.800
742.14	142.600
742.47	142.100
742.80	142.550
743.13	141.100
743.46	143.550
743.78	142.300
744.11	142.200
744.44	143.000
744.77	143.350
745.10	142.750
745.42	144.000
745.75	141.850
746.08	143.350
746.41	143.250
746.73	142.850
747.06	143.900
747.39	142.900
747.72	141.750
748.04	142.400
748.37	142.700
748.70	142.100
749.02	142.700
749.35	143.900
749.68	142.850
750.01	143.650
750.33	145.400
750.66	142.650
750.99	143.550
751.31	142.350
751.64	141.500
751.97	140.850
752.29	143.900
752.62	142.350
752.95	142.650
753.27	142.750
753.60	143.850
753.93	143.450
754.25	143.350
754.58	143.100
754.91	143.150
755.23	143.950
755.56	146.400
755.88	143.400
756.21	142.850
756.54	142.100
756.86	142.900
757.19	143.100
757.51	142.500
757.84	143.200
758.17	141.750
758.49	141.850
758.82	142.900
759.14	142.300
759.47	142.500
759.79	143.600
760.12	142.950
760.44	141.200
760.77	141.950
761.09	141.350
761.42	143.050
761.75	143.700
762.07	143.050
762.40	141.950
762.72	141.900
763.05	142.850
763.37	142.850
763.70	142.150
764.02	142.850
764.35	141.900
764.67	140.800
764.99	142.450
765.32	142.700
765.64	142.350
765.97	142.200
766.29	142.550
766.62	141.950
766.94	143.150
767.27	142.550
767.59	142.100
767.91	143.400
768.24	143.750
768.56	142.800
768.89	142.950
769.21	142.650
769.54	142.550
769.86	141.900
770.18	142.600
770.51	142.500
770.83	142.950
771.15	143.150
771.48	142.400
771.80	142.850
772.13	142.350
772.45	143.050
772.77	143.700
773.10	142.600
773.42	142.300
773.74	142.450
774.07	141.850
774.39	143.900
774.71	142.300
775.04	143.300
775.36	141.150
775.68	141.450
776.01	142.050
776.33	143.000
776.65	142.200
776.97	141.850
777.30	142.900
777.62	142.750
777.94	143.050
778.26	141.750
778.59	141.350
778.91	140.850
779.23	142.700
779.55	143.400
779.88	142.900
780.20	142.200
780.52	141.750
780.84	141.800
781.17	142.000
781.49	142.900
781.81	143.450
782.13	142.000
782.45	142.700
782.78	142.550
783.10	142.200
783.42	142.350
783.74	142.950
784.06	143.300
784.39	141.950
784.71	144.100
785.03	143.200
785.35	143.800
785.67	142.900
785.99	141.950
786.31	141.650
786.64	143.250
786.96	143.200
787.28	142.650
787.60	141.350
787.92	143.100
788.24	143.400
788.56	142.550
788.88	142.450
789.20	146.450
789.53	143.750
789.85	143.200
790.17	143.350
790.49	142.450
790.81	142.500
791.13	141.950
