OOIBase32 Version 2.0.6.5 Data File
++++++++++++++++++++++++++++++++++++
Date: 04-16-2021, 17:09:45
User: Valued Ocean Optics Customer
Spectrometer Serial Number: USB2E5007
Spectrometer Channel: Master
Integration Time (msec): 45
Spectra Averaged: 20
Boxcar Smoothing: 0
Correct for Electrical Dark: Disabled
Time Normalized: Disabled
Dual-beam Reference: Disabled
Reference Channel: Master
Temperature: Not acquired
Spectrometer Type: S2000
ADC Type: USB2000
Number of Pixels in File: 2048
Graph Title: 
>>>>>Begin Spectral Data<<<<<
340.15	0.000
340.52	129.800
340.90	131.400
341.27	133.850
341.64	134.400
342.01	137.250
342.38	138.550
342.76	139.700
343.13	140.950
343.50	139.750
343.87	140.450
344.24	141.050
344.61	140.700
344.98	140.400
345.36	140.700
345.73	141.350
346.10	140.250
346.47	141.250
346.84	139.500
347.21	139.500
347.58	140.200
347.96	142.250
348.33	141.000
348.70	140.100
349.07	140.850
349.44	140.500
349.81	143.900
350.18	142.950
350.55	142.150
350.92	142.400
351.30	142.150
351.67	143.050
352.04	142.200
352.41	142.750
352.78	145.550
353.15	143.450
353.52	143.100
353.89	144.800
354.26	143.150
354.63	143.650
355.00	144.350
355.37	144.650
355.75	143.350
356.12	142.850
356.49	144.200
356.86	144.850
357.23	143.700
357.60	144.000
357.97	143.750
358.34	143.800
358.71	146.450
359.08	145.100
359.45	144.700
359.82	146.000
360.19	145.400
360.56	143.800
360.93	145.100
361.30	145.000
361.67	145.000
362.04	145.900
362.41	144.500
362.78	145.050
363.15	146.850
363.52	145.350
363.89	146.350
364.26	143.650
364.63	143.300
365.00	145.450
365.37	145.350
365.74	145.250
366.11	145.000
366.48	146.550
366.85	145.550
367.22	145.500
367.59	146.950
367.96	145.000
368.33	145.600
368.70	145.850
369.07	146.350
369.44	146.900
369.81	147.300
370.18	146.550
370.55	145.500
370.92	146.950
371.29	147.150
371.66	147.200
372.03	147.000
372.40	147.550
372.77	146.800
373.13	146.450
373.50	147.450
373.87	147.050
374.24	147.200
374.61	147.250
374.98	147.450
375.35	147.100
375.72	147.150
376.09	147.400
376.46	147.300
376.83	145.800
377.20	146.800
377.56	147.200
377.93	146.800
378.30	148.050
378.67	146.700
379.04	147.600
379.41	147.850
379.78	147.950
380.15	150.250
380.51	148.550
380.88	147.750
381.25	148.200
381.62	149.750
381.99	148.550
382.36	147.200
382.73	147.700
383.09	148.100
383.46	148.200
383.83	148.000
384.20	148.050
384.57	149.800
384.94	148.600
385.31	147.500
385.67	148.950
386.04	148.450
386.41	148.000
386.78	147.550
387.15	150.050
387.51	149.800
387.88	149.150
388.25	148.100
388.62	148.900
388.99	148.450
389.36	148.400
389.72	148.400
390.09	150.950
390.46	151.000
390.83	150.550
391.19	149.550
391.56	149.050
391.93	148.600
392.30	150.600
392.67	149.800
393.03	149.300
393.40	150.950
393.77	149.700
394.14	150.100
394.50	150.500
394.87	150.750
395.24	149.900
395.61	149.100
395.97	150.950
396.34	149.500
396.71	148.750
397.08	151.000
397.44	150.150
397.81	150.100
398.18	150.450
398.55	150.750
398.91	150.550
399.28	151.600
399.65	150.500
400.01	151.700
400.38	150.800
400.75	150.200
401.12	150.850
401.48	149.100
401.85	151.050
402.22	152.000
402.58	152.400
402.95	151.250
403.32	151.650
403.68	151.950
404.05	151.200
404.42	150.800
404.78	152.750
405.15	152.350
405.52	152.100
405.88	151.850
406.25	153.000
406.62	150.950
406.98	151.050
407.35	153.400
407.72	152.600
408.08	152.800
408.45	154.050
408.82	154.700
409.18	152.950
409.55	154.200
409.91	155.150
410.28	154.050
410.65	154.650
411.01	155.450
411.38	156.050
411.75	155.900
412.11	157.300
412.48	158.900
412.84	158.300
413.21	158.200
413.58	159.900
413.94	161.750
414.31	160.750
414.67	162.850
415.04	162.700
415.41	164.500
415.77	165.350
416.14	165.300
416.50	167.900
416.87	166.600
417.23	168.600
417.60	171.700
417.97	171.300
418.33	173.850
418.70	174.850
419.06	178.600
419.43	179.300
419.79	183.350
420.16	183.400
420.52	189.600
420.89	191.950
421.25	194.550
421.62	198.050
421.98	199.900
422.35	203.850
422.72	202.700
423.08	212.400
423.45	216.850
423.81	218.200
424.18	224.850
424.54	225.550
424.91	233.000
425.27	239.950
425.64	250.000
426.00	257.650
426.37	262.650
426.73	267.750
427.09	278.350
427.46	288.500
427.82	293.250
428.19	299.150
428.55	311.450
428.92	322.800
429.28	339.600
429.65	351.850
430.01	377.700
430.38	379.100
430.74	389.100
431.11	392.350
431.47	438.800
431.83	433.350
432.20	471.550
432.56	477.700
432.93	511.250
433.29	512.150
433.66	526.200
434.02	572.700
434.38	557.050
434.75	616.100
435.11	610.150
435.48	658.700
435.84	667.100
436.20	726.300
436.57	725.150
436.93	764.850
437.30	822.700
437.66	810.500
438.02	906.900
438.39	937.050
438.75	959.300
439.12	1050.500
439.48	1073.250
439.84	1101.450
440.21	1155.950
440.57	1184.600
440.93	1363.150
441.30	1371.950
441.66	1398.650
442.02	1500.650
442.39	1495.950
442.75	1565.700
443.11	1600.650
443.48	1682.300
443.84	1753.200
444.20	1758.700
444.57	1992.400
444.93	2023.600
445.29	2174.900
445.66	2143.050
446.02	2245.550
446.38	2437.400
446.75	2464.150
447.11	2571.400
447.47	2504.150
447.84	2601.450
448.20	2769.500
448.56	2899.500
448.92	2964.050
449.29	2950.700
449.65	2974.400
450.01	3066.100
450.37	2996.900
450.74	3121.350
451.10	3205.800
451.46	3282.150
451.83	3124.450
452.19	3167.500
452.55	3026.250
452.91	3196.800
453.28	3221.200
453.64	3260.750
454.00	3202.400
454.36	2918.750
454.72	3119.000
455.09	2981.250
455.45	3012.100
455.81	2915.550
456.17	2827.450
456.54	2779.400
456.90	2748.200
457.26	2555.650
457.62	2559.800
457.98	2544.000
458.35	2512.200
458.71	2348.800
459.07	2318.800
459.43	2187.450
459.79	2171.400
460.16	2024.600
460.52	1973.350
460.88	1959.950
461.24	1951.950
461.60	1902.000
461.96	1905.950
462.33	1804.000
462.69	1726.900
463.05	1664.950
463.41	1673.150
463.77	1614.250
464.13	1527.550
464.49	1567.750
464.86	1507.350
465.22	1464.400
465.58	1442.250
465.94	1458.400
466.30	1376.100
466.66	1400.350
467.02	1384.850
467.38	1327.100
467.75	1288.900
468.11	1251.350
468.47	1224.200
468.83	1220.300
469.19	1200.350
469.55	1184.950
469.91	1132.500
470.27	1060.150
470.63	1085.000
470.99	1065.100
471.35	1012.150
471.72	1014.800
472.08	997.950
472.44	961.150
472.80	918.400
473.16	922.600
473.52	877.900
473.88	857.250
474.24	833.200
474.60	819.550
474.96	803.900
475.32	779.300
475.68	754.600
476.04	745.750
476.40	721.800
476.76	714.950
477.12	688.450
477.48	671.800
477.84	668.850
478.20	649.350
478.56	636.900
478.92	619.100
479.28	610.250
479.64	595.250
480.00	586.200
480.36	578.400
480.72	561.500
481.08	553.650
481.44	543.200
481.80	534.150
482.16	521.900
482.52	511.900
482.88	502.500
483.24	500.050
483.60	494.300
483.96	481.600
484.32	473.300
484.68	464.800
485.04	458.200
485.40	448.100
485.76	437.700
486.12	432.600
486.48	423.100
486.83	416.950
487.19	406.250
487.55	402.300
487.91	394.350
488.27	384.900
488.63	377.450
488.99	368.250
489.35	360.600
489.71	355.500
490.07	347.300
490.43	339.450
490.78	335.100
491.14	330.100
491.50	319.200
491.86	314.500
492.22	308.900
492.58	300.200
492.94	294.350
493.30	291.900
493.65	286.100
494.01	281.750
494.37	275.650
494.73	271.900
495.09	267.600
495.45	262.650
495.80	260.500
496.16	253.950
496.52	251.100
496.88	248.350
497.24	244.050
497.60	243.900
497.95	237.700
498.31	235.350
498.67	232.500
499.03	230.600
499.39	226.550
499.74	222.950
500.10	222.300
500.46	219.550
500.82	216.650
501.18	216.600
501.53	212.700
501.89	210.900
502.25	210.100
502.61	205.800
502.96	206.250
503.32	203.500
503.68	203.650
504.04	199.750
504.40	198.200
504.75	197.300
505.11	196.200
505.47	194.600
505.82	193.550
506.18	191.850
506.54	190.150
506.90	188.050
507.25	187.950
507.61	186.950
507.97	184.150
508.33	183.850
508.68	183.450
509.04	181.950
509.40	182.300
509.75	178.000
510.11	179.350
510.47	178.950
510.82	177.000
511.18	174.350
511.54	174.750
511.89	174.800
512.25	173.450
512.61	173.950
512.96	172.900
513.32	170.700
513.68	171.250
514.03	169.750
514.39	170.200
514.75	168.050
515.10	171.400
515.46	168.450
515.82	166.600
516.17	167.150
516.53	166.000
516.89	166.650
517.24	164.550
517.60	165.150
517.95	164.850
518.31	163.750
518.67	164.900
519.02	164.300
519.38	164.150
519.73	161.850
520.09	162.850
520.45	160.300
520.80	161.700
521.16	162.450
521.51	161.600
521.87	159.850
522.22	160.400
522.58	160.450
522.94	159.700
523.29	159.400
523.65	158.500
524.00	161.350
524.36	159.850
524.71	158.550
525.07	158.550
525.42	157.950
525.78	157.550
526.14	158.050
526.49	158.100
526.85	157.100
527.20	158.350
527.56	157.600
527.91	157.150
528.27	156.500
528.62	156.300
528.98	154.900
529.33	156.400
529.69	154.900
530.04	154.650
530.40	155.250
530.75	156.350
531.11	155.150
531.46	154.350
531.81	154.300
532.17	154.250
532.52	154.000
532.88	153.650
533.23	154.250
533.59	154.050
533.94	154.250
534.30	153.700
534.65	153.600
535.01	153.950
535.36	154.900
535.71	152.700
536.07	152.450
536.42	154.850
536.78	154.850
537.13	152.750
537.48	153.700
537.84	153.350
538.19	155.350
538.55	155.100
538.90	155.100
539.25	156.350
539.61	158.300
539.96	158.550
540.32	159.400
540.67	156.850
541.02	156.000
541.38	154.350
541.73	155.850
542.08	156.050
542.44	154.500
542.79	155.150
543.15	155.600
543.50	157.400
543.85	159.350
544.21	159.100
544.56	159.000
544.91	157.500
545.27	155.300
545.62	153.350
545.97	153.700
546.32	153.700
546.68	153.300
547.03	152.100
547.38	154.000
547.74	152.500
548.09	152.650
548.44	150.600
548.80	151.350
549.15	150.950
549.50	149.900
549.85	153.250
550.21	151.550
550.56	150.850
550.91	150.450
551.26	149.150
551.62	151.550
551.97	150.150
552.32	149.350
552.67	149.400
553.03	149.400
553.38	149.750
553.73	150.450
554.08	149.600
554.44	148.750
554.79	149.550
555.14	149.450
555.49	148.800
555.85	149.300
556.20	148.650
556.55	149.400
556.90	148.400
557.25	149.550
557.61	148.450
557.96	149.100
558.31	149.100
558.66	148.500
559.01	148.050
559.36	148.800
559.72	149.250
560.07	148.150
560.42	149.350
560.77	150.000
561.12	148.800
561.47	149.450
561.83	147.350
562.18	148.400
562.53	147.650
562.88	149.200
563.23	150.500
563.58	148.350
563.93	148.950
564.28	150.800
564.64	148.200
564.99	148.500
565.34	147.750
565.69	150.050
566.04	148.600
566.39	146.900
566.74	149.100
567.09	148.100
567.44	149.800
567.79	148.450
568.14	147.800
568.50	148.850
568.85	148.500
569.20	148.300
569.55	147.100
569.90	148.050
570.25	148.150
570.60	148.350
570.95	147.000
571.30	148.550
571.65	146.950
572.00	147.600
572.35	147.200
572.70	147.300
573.05	146.900
573.40	147.150
573.75	146.650
574.10	146.500
574.45	148.150
574.80	148.300
575.15	147.300
575.50	148.150
575.85	148.050
576.20	147.700
576.55	146.650
576.90	149.000
577.25	148.450
577.60	148.150
577.95	148.850
578.30	148.050
578.65	147.850
579.00	148.200
579.35	147.700
579.70	148.350
580.05	146.600
580.40	147.550
580.74	148.950
581.09	149.200
581.44	147.000
581.79	148.850
582.14	146.800
582.49	148.850
582.84	148.650
583.19	145.800
583.54	148.500
583.89	147.300
584.24	147.350
584.58	148.150
584.93	148.550
585.28	148.400
585.63	147.600
585.98	148.200
586.33	147.000
586.68	146.200
587.03	147.950
587.37	146.650
587.72	146.300
588.07	145.800
588.42	147.000
588.77	147.400
589.12	148.000
589.46	147.850
589.81	147.900
590.16	145.900
590.51	146.150
590.86	146.600
591.21	146.800
591.55	147.600
591.90	147.050
592.25	146.950
592.60	147.050
592.95	146.000
593.29	146.550
593.64	147.150
593.99	147.100
594.34	146.300
594.68	146.950
595.03	147.000
595.38	146.550
595.73	147.100
596.07	144.800
596.42	145.650
596.77	146.300
597.12	146.800
597.46	146.250
597.81	145.600
598.16	146.550
598.51	148.100
598.85	147.250
599.20	145.500
599.55	145.400
599.90	146.200
600.24	145.350
600.59	145.150
600.94	145.200
601.28	146.350
601.63	146.350
601.98	144.850
602.32	145.250
602.67	145.800
603.02	147.150
603.36	146.100
603.71	146.600
604.06	145.850
604.40	146.150
604.75	145.850
605.10	145.650
605.44	146.350
605.79	146.750
606.14	146.250
606.48	146.200
606.83	145.450
607.17	146.800
607.52	146.450
607.87	148.050
608.21	148.150
608.56	147.600
608.90	150.450
609.25	152.900
609.60	153.600
609.94	151.550
610.29	153.300
610.63	150.350
610.98	149.700
611.33	149.200
611.67	149.750
612.02	149.350
612.36	147.150
612.71	148.450
613.05	147.450
613.40	148.200
613.74	147.100
614.09	146.600
614.44	146.300
614.78	144.450
615.13	146.350
615.47	146.350
615.82	146.250
616.16	145.650
616.51	146.800
616.85	146.100
617.20	145.850
617.54	147.550
617.89	145.550
618.23	145.100
618.58	145.400
618.92	145.000
619.27	145.250
619.61	144.550
619.96	145.650
620.30	145.550
620.64	145.650
620.99	146.050
621.33	146.050
621.68	145.350
622.02	145.950
622.37	146.050
622.71	145.350
623.06	145.500
623.40	145.250
623.74	145.750
624.09	146.200
624.43	146.600
624.78	144.950
625.12	145.100
625.46	145.900
625.81	144.850
626.15	145.550
626.50	145.650
626.84	144.000
627.18	146.400
627.53	145.550
627.87	145.200
628.21	144.900
628.56	144.950
628.90	144.900
629.25	145.350
629.59	146.900
629.93	145.000
630.28	144.950
630.62	145.000
630.96	146.700
631.31	145.100
631.65	144.700
631.99	144.300
632.34	144.150
632.68	145.100
633.02	144.150
633.36	145.050
633.71	145.350
634.05	145.200
634.39	144.150
634.74	144.650
635.08	144.200
635.42	144.450
635.76	145.200
636.11	144.100
636.45	146.850
636.79	144.250
637.14	144.750
637.48	144.500
637.82	144.550
638.16	144.500
638.50	144.000
638.85	143.250
639.19	145.650
639.53	145.600
639.87	143.150
640.22	143.800
640.56	144.200
640.90	143.900
641.24	144.100
641.58	144.800
641.93	142.000
642.27	144.150
642.61	144.900
642.95	145.600
643.29	143.950
643.64	144.050
643.98	144.450
644.32	144.550
644.66	143.450
645.00	143.650
645.34	144.600
645.68	145.600
646.03	145.250
646.37	144.250
646.71	143.850
647.05	145.500
647.39	143.850
647.73	145.350
648.07	144.700
648.42	145.650
648.76	144.150
649.10	144.800
649.44	145.650
649.78	144.300
650.12	145.250
650.46	145.100
650.80	144.750
651.14	145.800
651.48	144.950
651.82	144.200
652.16	146.050
652.51	143.900
652.85	143.400
653.19	144.400
653.53	145.000
653.87	144.150
654.21	144.500
654.55	143.450
654.89	143.750
655.23	144.550
655.57	145.600
655.91	144.800
656.25	144.550
656.59	143.100
656.93	143.700
657.27	143.550
657.61	146.300
657.95	144.750
658.29	144.100
658.63	143.450
658.97	144.900
659.31	146.200
659.65	143.300
659.99	144.200
660.33	145.450
660.67	143.700
661.01	144.350
661.35	144.000
661.68	144.100
662.02	143.950
662.36	143.650
662.70	144.100
663.04	143.450
663.38	145.100
663.72	143.900
664.06	143.750
664.40	144.300
664.74	143.700
665.08	144.700
665.42	144.350
665.75	142.450
666.09	142.900
666.43	145.650
666.77	144.850
667.11	142.400
667.45	144.250
667.79	144.200
668.12	143.600
668.46	143.950
668.80	144.350
669.14	144.700
669.48	144.600
669.82	144.000
670.16	144.350
670.49	143.550
670.83	144.400
671.17	144.400
671.51	144.050
671.85	143.800
672.18	143.950
672.52	143.850
672.86	144.450
673.20	143.200
673.54	143.800
673.87	144.050
674.21	144.050
674.55	144.200
674.89	143.950
675.22	143.800
675.56	143.850
675.90	144.800
676.24	143.550
676.57	142.900
676.91	143.550
677.25	143.500
677.59	144.100
677.92	143.650
678.26	143.150
678.60	144.000
678.93	144.400
679.27	143.850
679.61	144.000
679.95	142.800
680.28	144.650
680.62	143.350
680.96	143.650
681.29	142.450
681.63	143.700
681.97	143.200
682.30	142.900
682.64	143.050
682.98	144.300
683.31	143.800
683.65	143.850
683.99	143.100
684.32	143.550
684.66	144.800
685.00	143.800
685.33	144.650
685.67	143.800
686.00	143.000
686.34	142.400
686.68	146.150
687.01	143.050
687.35	142.800
687.68	145.300
688.02	143.600
688.36	144.800
688.69	143.500
689.03	144.300
689.36	144.700
689.70	142.400
690.03	144.650
690.37	142.850
690.71	143.700
691.04	143.600
691.38	143.150
691.71	144.850
692.05	143.400
692.38	143.500
692.72	143.700
693.05	145.000
693.39	144.100
693.72	142.900
694.06	143.400
694.39	143.200
694.73	143.700
695.06	142.650
695.40	143.000
695.73	142.900
696.07	145.200
696.40	143.650
696.74	144.750
697.07	144.100
697.41	142.750
697.74	144.950
698.08	144.000
698.41	143.500
698.74	143.300
699.08	143.200
699.41	143.400
699.75	143.750
700.08	142.400
700.42	142.400
700.75	144.000
701.08	143.650
701.42	143.200
701.75	144.400
702.09	143.900
702.42	145.550
702.75	143.200
703.09	143.900
703.42	143.900
703.75	144.050
704.09	142.850
704.42	143.250
704.76	143.550
705.09	145.550
705.42	142.850
705.76	143.900
706.09	142.700
706.42	146.050
706.76	144.000
707.09	143.650
707.42	143.500
707.76	143.000
708.09	143.700
708.42	144.250
708.75	145.000
709.09	142.300
709.42	143.000
709.75	143.350
710.09	144.250
710.42	144.100
710.75	142.550
711.08	143.150
711.42	143.300
711.75	144.200
712.08	144.200
712.41	143.100
712.75	144.500
713.08	143.900
713.41	143.800
713.74	143.750
714.08	143.150
714.41	143.850
714.74	143.600
715.07	144.400
715.41	142.550
715.74	144.150
716.07	143.400
716.40	143.200
716.73	142.650
717.06	141.950
717.40	143.200
717.73	141.100
718.06	144.400
718.39	142.850
718.72	144.050
719.05	143.450
719.39	142.900
719.72	143.500
720.05	142.850
720.38	143.050
720.71	142.750
721.04	143.300
721.37	142.850
721.71	143.500
722.04	141.600
722.37	142.200
722.70	144.100
723.03	144.050
723.36	143.300
723.69	142.200
724.02	143.400
724.35	144.050
724.68	144.700
725.01	144.000
725.35	143.200
725.68	142.450
726.01	142.100
726.34	143.200
726.67	143.000
727.00	142.750
727.33	142.250
727.66	143.550
727.99	143.900
728.32	143.800
728.65	143.500
728.98	142.900
729.31	143.300
729.64	143.100
729.97	142.500
730.30	143.150
730.63	143.650
730.96	142.050
731.29	142.850
731.62	142.300
731.95	143.950
732.28	144.100
732.61	143.000
732.94	144.450
733.27	144.100
733.60	143.750
733.93	142.250
734.25	142.800
734.58	142.250
734.91	142.400
735.24	141.700
735.57	143.850
735.90	143.100
736.23	143.900
736.56	143.550
736.89	143.350
737.22	144.200
737.55	143.800
737.87	144.650
738.20	142.550
738.53	142.100
738.86	141.650
739.19	143.150
739.52	143.900
739.85	142.800
740.17	142.850
740.50	143.500
740.83	142.600
741.16	142.650
741.49	142.850
741.82	143.250
742.14	142.850
742.47	142.750
742.80	142.200
743.13	142.050
743.46	143.350
743.78	144.000
744.11	143.200
744.44	143.000
744.77	143.000
745.10	142.850
745.42	144.000
745.75	143.300
746.08	143.300
746.41	142.900
746.73	143.150
747.06	144.700
747.39	143.150
747.72	143.300
748.04	143.000
748.37	143.800
748.70	143.550
749.02	144.750
749.35	143.000
749.68	143.550
750.01	143.300
750.33	145.300
750.66	143.000
750.99	143.900
751.31	143.050
751.64	142.400
751.97	142.100
752.29	144.100
752.62	142.950
752.95	143.000
753.27	142.850
753.60	144.050
753.93	143.500
754.25	143.450
754.58	143.400
754.91	142.550
755.23	144.300
755.56	147.450
755.88	143.250
756.21	144.550
756.54	142.050
756.86	144.250
757.19	142.800
757.51	141.800
757.84	144.050
758.17	143.050
758.49	143.400
758.82	141.900
759.14	142.100
759.47	142.650
759.79	142.850
760.12	144.300
760.44	141.450
760.77	143.700
761.09	142.650
761.42	143.800
761.75	144.650
762.07	143.050
762.40	141.300
762.72	142.400
763.05	143.050
763.37	142.700
763.70	142.700
764.02	143.500
764.35	142.150
764.67	142.550
764.99	143.300
765.32	142.450
765.64	143.250
765.97	143.000
766.29	143.600
766.62	142.500
766.94	143.250
767.27	144.350
767.59	142.250
767.91	142.800
768.24	144.750
768.56	142.200
768.89	144.050
769.21	142.750
769.54	144.400
769.86	142.900
770.18	142.000
770.51	142.850
770.83	143.200
771.15	142.450
771.48	142.800
771.80	142.150
772.13	143.950
772.45	144.200
772.77	143.650
773.10	143.250
773.42	143.600
773.74	142.150
774.07	143.550
774.39	143.400
774.71	142.750
775.04	142.950
775.36	142.350
775.68	141.850
776.01	142.650
776.33	141.850
776.65	142.400
776.97	142.800
777.30	144.500
777.62	143.300
777.94	142.900
778.26	143.000
778.59	141.600
778.91	142.000
779.23	143.250
779.55	143.650
779.88	142.350
780.20	143.150
780.52	140.850
780.84	141.600
781.17	142.400
781.49	142.600
781.81	142.250
782.13	142.000
782.45	144.400
782.78	143.550
783.10	142.500
783.42	143.050
783.74	141.900
784.06	143.150
784.39	142.000
784.71	143.350
785.03	143.050
785.35	143.550
785.67	142.950
785.99	141.800
786.31	142.650
786.64	143.250
786.96	142.100
787.28	142.850
787.60	142.200
787.92	142.150
788.24	142.250
788.56	142.450
788.88	142.450
789.20	147.300
789.53	143.100
789.85	142.700
790.17	142.300
