OOIBase32 Version 2.0.6.5 Data File
++++++++++++++++++++++++++++++++++++
Date: 04-16-2021, 17:11:18
User: Valued Ocean Optics Customer
Spectrometer Serial Number: USB2E5007
Spectrometer Channel: Master
Integration Time (msec): 45
Spectra Averaged: 20
Boxcar Smoothing: 0
Correct for Electrical Dark: Disabled
Time Normalized: Disabled
Dual-beam Reference: Disabled
Reference Channel: Master
Temperature: Not acquired
Spectrometer Type: S2000
ADC Type: USB2000
Number of Pixels in File: 2048
Graph Title: 
>>>>>Begin Spectral Data<<<<<
340.15	0.000
340.52	129.500
340.90	130.900
341.27	132.000
341.64	133.950
342.01	138.650
342.38	138.900
342.76	138.850
343.13	141.150
343.50	140.450
343.87	139.550
344.24	140.150
344.61	141.300
344.98	140.000
345.36	139.850
345.73	140.750
346.10	139.900
346.47	142.000
346.84	139.950
347.21	139.300
347.58	140.700
347.96	142.900
348.33	139.250
348.70	140.300
349.07	140.600
349.44	140.050
349.81	142.650
350.18	141.300
350.55	140.800
350.92	141.900
351.30	141.200
351.67	140.500
352.04	141.050
352.41	141.650
352.78	142.800
353.15	141.900
353.52	142.650
353.89	144.050
354.26	143.000
354.63	141.350
355.00	142.650
355.37	142.300
355.75	143.100
356.12	142.050
356.49	143.550
356.86	143.250
357.23	141.550
357.60	142.000
357.97	141.850
358.34	141.950
358.71	143.700
359.08	142.900
359.45	140.950
359.82	143.550
360.19	143.100
360.56	142.200
360.93	142.500
361.30	142.500
361.67	142.300
362.04	144.600
362.41	143.100
362.78	143.000
363.15	145.150
363.52	144.200
363.89	143.450
364.26	143.950
364.63	143.700
365.00	143.850
365.37	144.050
365.74	142.850
366.11	144.150
366.48	144.500
366.85	143.950
367.22	142.700
367.59	145.800
367.96	144.100
368.33	143.800
368.70	144.500
369.07	144.550
369.44	146.100
369.81	145.150
370.18	144.950
370.55	142.700
370.92	144.150
371.29	144.850
371.66	145.200
372.03	144.400
372.40	144.700
372.77	144.400
373.13	144.550
373.50	144.500
373.87	144.650
374.24	146.700
374.61	146.250
374.98	144.750
375.35	145.150
375.72	146.250
376.09	144.600
376.46	144.650
376.83	144.500
377.20	144.750
377.56	144.800
377.93	144.000
378.30	146.000
378.67	145.200
379.04	144.850
379.41	145.400
379.78	146.150
380.15	147.500
380.51	145.450
380.88	145.550
381.25	144.950
381.62	147.100
381.99	145.300
382.36	144.700
382.73	146.050
383.09	146.750
383.46	146.100
383.83	146.350
384.20	145.900
384.57	146.200
384.94	146.650
385.31	145.350
385.67	146.150
386.04	145.200
386.41	146.250
386.78	146.050
387.15	147.150
387.51	146.600
387.88	146.150
388.25	146.150
388.62	145.300
388.99	146.100
389.36	147.150
389.72	145.850
390.09	150.150
390.46	147.000
390.83	147.700
391.19	146.200
391.56	146.050
391.93	146.550
392.30	147.150
392.67	147.350
393.03	146.750
393.40	146.400
393.77	146.450
394.14	147.000
394.50	145.750
394.87	147.350
395.24	146.950
395.61	147.950
395.97	146.750
396.34	146.500
396.71	146.050
397.08	148.650
397.44	146.800
397.81	147.350
398.18	148.700
398.55	147.750
398.91	147.800
399.28	147.950
399.65	148.150
400.01	148.750
400.38	147.050
400.75	147.000
401.12	146.750
401.48	146.250
401.85	146.850
402.22	146.750
402.58	146.900
402.95	148.750
403.32	148.000
403.68	147.500
404.05	148.050
404.42	147.150
404.78	147.900
405.15	148.550
405.52	148.700
405.88	147.350
406.25	146.750
406.62	147.350
406.98	147.950
407.35	148.250
407.72	148.550
408.08	148.750
408.45	147.550
408.82	149.100
409.18	147.000
409.55	148.500
409.91	148.950
410.28	149.150
410.65	149.400
411.01	147.150
411.38	147.950
411.75	147.450
412.11	148.900
412.48	149.650
412.84	150.000
413.21	149.200
413.58	149.350
413.94	149.450
414.31	150.900
414.67	151.300
415.04	149.900
415.41	150.900
415.77	151.100
416.14	151.650
416.50	152.550
416.87	152.100
417.23	151.800
417.60	153.200
417.97	152.800
418.33	152.700
418.70	153.600
419.06	155.800
419.43	154.750
419.79	155.150
420.16	155.550
420.52	156.300
420.89	158.050
421.25	158.400
421.62	159.950
421.98	159.900
422.35	160.350
422.72	161.000
423.08	162.350
423.45	165.400
423.81	165.900
424.18	165.500
424.54	166.400
424.91	167.550
425.27	172.100
425.64	171.250
426.00	173.350
426.37	176.350
426.73	178.400
427.09	180.800
427.46	184.500
427.82	185.550
428.19	186.550
428.55	189.850
428.92	192.650
429.28	199.850
429.65	201.000
430.01	208.500
430.38	209.900
430.74	210.300
431.11	213.750
431.47	226.000
431.83	226.150
432.20	234.900
432.56	237.900
432.93	246.150
433.29	247.100
433.66	253.200
434.02	268.050
434.38	262.950
434.75	278.800
435.11	277.550
435.48	288.700
435.84	291.700
436.20	307.200
436.57	310.550
436.93	322.500
437.30	339.700
437.66	335.050
438.02	365.050
438.39	374.600
438.75	380.300
439.12	407.850
439.48	415.050
439.84	426.050
440.21	440.350
440.57	449.900
440.93	502.250
441.30	509.700
441.66	516.850
442.02	548.950
442.39	551.100
442.75	578.450
443.11	588.150
443.48	619.100
443.84	648.650
444.20	654.100
444.57	730.150
444.93	751.200
445.29	809.150
445.66	806.600
446.02	849.150
446.38	930.350
446.75	953.900
447.11	998.700
447.47	988.200
447.84	1035.500
448.20	1118.000
448.56	1178.300
448.92	1225.650
449.29	1241.250
449.65	1265.600
450.01	1321.250
450.37	1315.000
450.74	1388.600
451.10	1443.550
451.46	1496.900
451.83	1444.900
452.19	1483.850
452.55	1441.350
452.91	1535.350
453.28	1563.250
453.64	1602.950
454.00	1589.850
454.36	1461.150
454.72	1580.500
455.09	1519.800
455.45	1541.600
455.81	1505.400
456.17	1465.650
456.54	1449.200
456.90	1441.700
457.26	1339.300
457.62	1348.650
457.98	1341.450
458.35	1324.000
458.71	1233.250
459.07	1218.700
459.43	1148.050
459.79	1137.400
460.16	1056.450
460.52	1027.450
460.88	1015.550
461.24	1006.150
461.60	980.050
461.96	975.350
462.33	923.900
462.69	888.700
463.05	856.150
463.41	853.500
463.77	826.200
464.13	783.200
464.49	802.550
464.86	773.000
465.22	752.500
465.58	741.300
465.94	748.250
466.30	717.400
466.66	728.850
467.02	718.500
467.38	695.250
467.75	680.250
468.11	668.200
468.47	656.200
468.83	654.100
469.19	649.050
469.55	639.850
469.91	616.950
470.27	584.550
470.63	596.000
470.99	590.900
471.35	568.850
471.72	567.800
472.08	561.450
472.44	543.400
472.80	523.500
473.16	524.500
473.52	504.850
473.88	491.000
474.24	482.350
474.60	474.850
474.96	464.900
475.32	452.600
475.68	439.850
476.04	435.300
476.40	425.000
476.76	416.850
477.12	404.800
477.48	398.250
477.84	395.100
478.20	385.750
478.56	376.750
478.92	369.050
479.28	363.550
479.64	356.100
480.00	352.700
480.36	347.700
480.72	338.150
481.08	336.100
481.44	331.150
481.80	323.900
482.16	318.050
482.52	315.400
482.88	310.550
483.24	310.050
483.60	307.450
483.96	303.150
484.32	298.400
484.68	293.900
485.04	291.100
485.40	289.400
485.76	285.100
486.12	282.450
486.48	278.150
486.83	273.900
487.19	271.100
487.55	265.750
487.91	266.300
488.27	260.050
488.63	258.150
488.99	251.450
489.35	252.050
489.71	244.200
490.07	240.950
490.43	236.450
490.78	235.350
491.14	233.550
491.50	228.600
491.86	224.300
492.22	223.500
492.58	218.100
492.94	216.050
493.30	214.900
493.65	210.850
494.01	210.100
494.37	206.750
494.73	204.750
495.09	201.750
495.45	199.950
495.80	198.900
496.16	196.150
496.52	193.350
496.88	192.500
497.24	191.850
497.60	190.800
497.95	187.650
498.31	184.200
498.67	184.000
499.03	182.400
499.39	181.850
499.74	180.550
500.10	180.600
500.46	177.950
500.82	179.200
501.18	177.450
501.53	175.650
501.89	173.600
502.25	173.850
502.61	172.250
502.96	172.150
503.32	171.400
503.68	171.900
504.04	169.400
504.40	168.800
504.75	168.000
505.11	168.200
505.47	167.050
505.82	166.900
506.18	165.450
506.54	165.250
506.90	164.450
507.25	164.450
507.61	163.200
507.97	163.700
508.33	162.300
508.68	162.900
509.04	161.550
509.40	160.300
509.75	159.300
510.11	160.450
510.47	160.600
510.82	159.600
511.18	158.250
511.54	157.900
511.89	157.650
512.25	156.700
512.61	156.600
512.96	157.300
513.32	154.200
513.68	156.100
514.03	156.150
514.39	156.150
514.75	154.300
515.10	156.400
515.46	154.600
515.82	153.300
516.17	154.250
516.53	153.800
516.89	153.700
517.24	153.600
517.60	152.600
517.95	153.500
518.31	152.200
518.67	153.100
519.02	153.150
519.38	153.000
519.73	151.550
520.09	152.050
520.45	151.300
520.80	150.900
521.16	152.550
521.51	150.400
521.87	151.100
522.22	150.300
522.58	150.450
522.94	150.850
523.29	150.150
523.65	150.100
524.00	151.550
524.36	150.950
524.71	151.250
525.07	149.000
525.42	149.100
525.78	149.700
526.14	148.750
526.49	149.750
526.85	149.800
527.20	149.450
527.56	149.500
527.91	150.200
528.27	149.350
528.62	148.350
528.98	147.900
529.33	147.850
529.69	148.300
530.04	147.950
530.40	147.900
530.75	149.150
531.11	149.850
531.46	148.950
531.81	148.550
532.17	149.450
532.52	148.100
532.88	147.100
533.23	148.200
533.59	148.400
533.94	148.550
534.30	148.000
534.65	148.250
535.01	147.450
535.36	149.250
535.71	147.600
536.07	149.000
536.42	150.300
536.78	149.200
537.13	149.050
537.48	149.650
537.84	149.100
538.19	149.650
538.55	150.550
538.90	152.450
539.25	154.400
539.61	155.400
539.96	156.200
540.32	156.450
540.67	154.700
541.02	153.950
541.38	154.550
541.73	153.750
542.08	154.150
542.44	153.200
542.79	153.450
543.15	152.850
543.50	155.900
543.85	160.200
544.21	160.200
544.56	158.250
544.91	157.400
545.27	154.100
545.62	152.250
545.97	152.500
546.32	150.900
546.68	150.450
547.03	150.450
547.38	151.200
547.74	149.700
548.09	149.550
548.44	148.550
548.80	148.450
549.15	147.900
549.50	147.550
549.85	148.700
550.21	148.050
550.56	148.200
550.91	146.950
551.26	146.650
551.62	147.950
551.97	147.650
552.32	146.500
552.67	145.950
553.03	146.450
553.38	146.000
553.73	146.600
554.08	146.200
554.44	145.850
554.79	145.850
555.14	146.500
555.49	145.850
555.85	145.500
556.20	145.450
556.55	146.300
556.90	146.050
557.25	144.600
557.61	146.200
557.96	145.750
558.31	145.850
558.66	145.050
559.01	146.000
559.36	145.450
559.72	145.600
560.07	144.700
560.42	145.600
560.77	146.300
561.12	145.900
561.47	146.200
561.83	145.650
562.18	146.350
562.53	144.600
562.88	145.150
563.23	146.850
563.58	145.400
563.93	145.400
564.28	147.600
564.64	144.900
564.99	145.250
565.34	144.850
565.69	147.450
566.04	145.450
566.39	144.750
566.74	146.550
567.09	145.100
567.44	146.600
567.79	144.700
568.14	145.000
568.50	146.100
568.85	144.550
569.20	143.850
569.55	145.750
569.90	145.400
570.25	145.500
570.60	145.850
570.95	144.850
571.30	145.250
571.65	144.750
572.00	145.150
572.35	145.050
572.70	144.300
573.05	145.050
573.40	144.650
573.75	143.700
574.10	144.900
574.45	145.800
574.80	144.900
575.15	144.400
575.50	146.400
575.85	144.850
576.20	145.100
576.55	144.550
576.90	146.350
577.25	146.700
577.60	145.700
577.95	146.600
578.30	146.650
578.65	146.300
579.00	146.000
579.35	147.200
579.70	145.650
580.05	145.150
580.40	145.500
580.74	146.500
581.09	147.300
581.44	146.950
581.79	146.850
582.14	146.850
582.49	147.100
582.84	146.850
583.19	145.550
583.54	145.950
583.89	146.300
584.24	145.450
584.58	145.100
584.93	145.800
585.28	146.950
585.63	147.050
585.98	147.350
586.33	146.150
586.68	145.250
587.03	146.450
587.37	145.500
587.72	144.700
588.07	144.650
588.42	145.250
588.77	144.700
589.12	144.750
589.46	145.150
589.81	146.750
590.16	144.200
590.51	144.700
590.86	144.550
591.21	145.650
591.55	144.950
591.90	144.800
592.25	145.550
592.60	144.950
592.95	144.100
593.29	145.750
593.64	145.250
593.99	145.600
594.34	145.200
594.68	146.050
595.03	145.300
595.38	144.350
595.73	144.250
596.07	144.000
596.42	145.400
596.77	144.300
597.12	144.950
597.46	144.300
597.81	144.250
598.16	144.800
598.51	146.750
598.85	144.150
599.20	144.100
599.55	144.700
599.90	145.200
600.24	143.300
600.59	144.000
600.94	143.750
601.28	144.750
601.63	144.200
601.98	143.050
602.32	143.600
602.67	144.400
603.02	144.550
603.36	146.000
603.71	144.650
604.06	145.000
604.40	145.000
604.75	144.200
605.10	144.650
605.44	146.000
605.79	144.550
606.14	143.900
606.48	144.700
606.83	143.450
607.17	145.550
607.52	146.450
607.87	145.750
608.21	146.650
608.56	148.350
608.90	153.750
609.25	156.300
609.60	157.050
609.94	154.500
610.29	154.000
610.63	151.750
610.98	150.050
611.33	150.550
611.67	149.000
612.02	148.550
612.36	147.450
612.71	147.750
613.05	146.350
613.40	146.550
613.74	145.900
614.09	146.200
614.44	145.650
614.78	145.300
615.13	146.150
615.47	145.300
615.82	145.750
616.16	144.200
616.51	146.250
616.85	144.750
617.20	144.200
617.54	145.900
617.89	145.500
618.23	144.300
618.58	144.950
618.92	144.100
619.27	144.950
619.61	144.850
619.96	145.700
620.30	145.400
620.64	145.550
620.99	144.850
621.33	145.700
621.68	146.000
622.02	145.600
622.37	145.050
622.71	143.250
623.06	145.200
623.40	144.400
623.74	144.700
624.09	146.550
624.43	145.650
624.78	145.450
625.12	143.900
625.46	143.700
625.81	143.950
626.15	144.900
626.50	143.550
626.84	143.750
627.18	144.800
627.53	145.200
627.87	143.900
628.21	144.600
628.56	145.350
628.90	143.850
629.25	144.150
629.59	144.950
629.93	146.150
630.28	144.900
630.62	144.400
630.96	145.800
631.31	143.550
631.65	144.250
631.99	143.350
632.34	143.800
632.68	143.300
633.02	142.850
633.36	144.200
633.71	143.000
634.05	143.950
634.39	143.850
634.74	142.550
635.08	141.950
635.42	143.550
635.76	144.700
636.11	143.750
636.45	145.950
636.79	142.900
637.14	143.100
637.48	143.900
637.82	143.950
638.16	142.650
638.50	143.000
638.85	142.750
639.19	145.350
639.53	144.250
639.87	142.850
640.22	142.900
640.56	142.550
640.90	142.200
641.24	143.550
641.58	143.050
641.93	143.600
642.27	143.900
642.61	144.400
642.95	143.750
643.29	143.000
643.64	142.450
643.98	144.550
644.32	143.250
644.66	143.650
645.00	143.050
645.34	143.200
645.68	144.000
646.03	144.200
646.37	143.850
646.71	143.350
647.05	144.250
647.39	144.450
647.73	144.100
648.07	144.500
648.42	144.300
648.76	143.700
649.10	144.150
649.44	144.900
649.78	142.900
650.12	143.950
650.46	144.100
650.80	143.950
651.14	144.800
651.48	143.450
651.82	143.100
652.16	145.000
652.51	142.100
652.85	141.350
653.19	143.750
653.53	144.400
653.87	142.900
654.21	143.150
654.55	142.350
654.89	142.650
655.23	144.200
655.57	145.150
655.91	143.250
656.25	143.900
656.59	143.050
656.93	142.300
657.27	142.550
657.61	144.700
657.95	142.550
658.29	143.650
658.63	142.950
658.97	143.500
659.31	144.150
659.65	143.450
659.99	144.050
660.33	144.150
660.67	143.450
661.01	144.350
661.35	142.050
661.68	143.550
662.02	143.550
662.36	142.450
662.70	143.000
663.04	142.650
663.38	144.600
663.72	144.000
664.06	144.300
664.40	142.850
664.74	143.300
665.08	142.950
665.42	143.550
665.75	143.250
666.09	142.450
666.43	145.600
666.77	143.400
667.11	142.700
667.45	143.050
667.79	143.450
668.12	142.550
668.46	143.200
668.80	143.950
669.14	143.350
669.48	143.200
669.82	144.300
670.16	144.450
670.49	142.050
670.83	142.750
671.17	143.300
671.51	142.450
671.85	143.000
672.18	142.500
672.52	142.400
672.86	143.650
673.20	142.500
673.54	143.000
673.87	143.300
674.21	144.350
674.55	142.650
674.89	143.400
675.22	143.000
675.56	144.050
675.90	143.650
676.24	144.300
676.57	143.600
676.91	144.500
677.25	143.400
677.59	143.000
677.92	142.150
678.26	141.950
678.60	143.600
678.93	144.800
679.27	143.150
679.61	143.100
679.95	142.800
680.28	143.700
680.62	144.000
680.96	144.200
681.29	142.850
681.63	143.350
681.97	142.050
682.30	143.300
682.64	142.450
682.98	143.200
683.31	144.250
683.65	144.450
683.99	141.900
684.32	142.450
684.66	142.400
685.00	143.150
685.33	143.600
685.67	143.300
686.00	142.250
686.34	142.300
686.68	144.450
687.01	143.300
687.35	143.500
687.68	143.150
688.02	141.950
688.36	143.900
688.69	142.750
689.03	143.450
689.36	142.600
689.70	143.300
690.03	143.200
690.37	141.450
690.71	142.800
691.04	142.600
691.38	141.950
691.71	143.400
692.05	142.450
692.38	142.250
692.72	142.650
693.05	142.750
693.39	144.100
693.72	143.550
694.06	142.550
694.39	141.300
694.73	141.900
695.06	142.750
695.40	142.450
695.73	141.900
696.07	144.250
696.40	142.500
696.74	143.050
697.07	143.150
697.41	141.700
697.74	145.100
698.08	142.350
698.41	143.550
698.74	143.550
699.08	142.100
699.41	143.000
699.75	143.250
700.08	142.550
700.42	142.200
700.75	142.650
701.08	143.100
701.42	141.850
701.75	143.700
702.09	142.950
702.42	145.050
702.75	142.250
703.09	142.250
703.42	142.100
703.75	142.300
704.09	142.300
704.42	142.650
704.76	143.600
705.09	143.550
705.42	142.750
705.76	143.650
706.09	141.850
706.42	144.850
706.76	142.000
707.09	142.900
707.42	143.100
707.76	143.150
708.09	142.350
708.42	143.250
708.75	143.250
709.09	142.150
709.42	142.950
709.75	142.800
710.09	143.850
710.42	143.700
710.75	141.900
711.08	143.250
711.42	144.500
711.75	143.750
712.08	142.900
712.41	142.750
712.75	143.450
713.08	143.200
713.41	142.400
713.74	142.150
714.08	142.850
714.41	144.150
714.74	142.400
715.07	144.350
715.41	142.900
715.74	143.550
716.07	143.300
716.40	143.000
716.73	143.550
717.06	141.950
717.40	143.350
717.73	141.850
718.06	143.200
718.39	143.900
718.72	143.900
719.05	142.350
719.39	142.900
719.72	143.300
720.05	143.550
720.38	143.650
720.71	142.450
721.04	142.800
721.37	143.050
721.71	142.550
722.04	142.000
722.37	141.500
722.70	142.550
723.03	142.250
723.36	142.400
723.69	142.400
724.02	143.350
724.35	143.050
724.68	143.450
725.01	141.600
725.35	142.850
725.68	142.050
726.01	142.650
726.34	143.250
726.67	141.950
727.00	142.100
727.33	142.000
727.66	143.200
727.99	143.700
728.32	142.050
728.65	142.600
728.98	143.050
729.31	143.000
729.64	143.200
729.97	141.850
730.30	142.900
730.63	142.800
730.96	141.600
731.29	142.250
731.62	142.350
731.95	144.650
732.28	143.900
732.61	142.550
732.94	142.700
733.27	142.650
733.60	142.700
733.93	141.950
734.25	142.700
734.58	143.300
734.91	143.800
735.24	142.400
735.57	143.750
735.90	141.850
736.23	142.450
736.56	143.100
736.89	142.650
737.22	142.550
737.55	143.400
737.87	143.200
738.20	141.400
738.53	142.250
738.86	142.450
739.19	143.300
739.52	142.550
739.85	142.050
740.17	143.300
740.50	143.050
740.83	142.550
741.16	142.950
741.49	143.650
741.82	143.150
742.14	141.050
742.47	141.300
742.80	141.900
743.13	141.750
743.46	142.850
743.78	143.600
744.11	142.650
744.44	142.600
744.77	143.600
745.10	142.450
745.42	143.100
745.75	142.500
746.08	143.350
746.41	142.700
746.73	142.150
747.06	143.800
747.39	142.400
747.72	142.950
748.04	143.500
748.37	142.850
748.70	142.600
749.02	143.850
749.35	143.600
749.68	141.400
750.01	142.100
750.33	145.050
750.66	142.450
750.99	143.900
751.31	142.400
751.64	142.300
751.97	142.000
752.29	144.250
752.62	142.250
752.95	142.600
753.27	143.000
753.60	144.350
753.93	142.200
754.25	142.200
754.58	143.150
754.91	143.100
755.23	144.450
755.56	146.400
755.88	144.250
756.21	142.450
756.54	142.550
756.86	142.250
757.19	141.900
757.51	142.450
757.84	143.750
758.17	141.700
758.49	142.400
758.82	142.450
759.14	142.550
759.47	143.100
759.79	142.900
760.12	142.150
760.44	142.450
760.77	143.150
761.09	142.150
761.42	143.050
761.75	143.400
762.07	143.250
762.40	143.750
762.72	142.900
763.05	142.250
763.37	142.100
763.70	140.550
764.02	142.850
764.35	141.700
764.67	142.450
764.99	142.750
765.32	142.400
765.64	142.300
765.97	141.900
766.29	142.100
766.62	141.800
766.94	143.800
767.27	142.800
767.59	142.600
767.91	142.150
768.24	143.550
768.56	143.200
768.89	143.200
769.21	142.250
769.54	142.150
769.86	143.300
770.18	141.800
770.51	142.650
770.83	142.900
771.15	142.400
771.48	142.950
771.80	141.900
772.13	142.950
772.45	142.850
772.77	141.450
773.10	141.900
773.42	142.800
773.74	141.550
774.07	142.650
774.39	142.700
774.71	141.550
775.04	143.350
775.36	141.750
775.68	141.550
776.01	141.350
776.33	142.250
776.65	142.000
776.97	141.950
777.30	143.650
777.62	142.950
777.94	143.100
778.26	142.100
778.59	141.200
778.91	141.450
779.23	142.400
779.55	142.150
779.88	141.900
780.20	143.050
780.52	141.400
780.84	142.100
781.17	142.400
781.49	143.500
781.81	142.200
782.13	142.100
782.45	142.800
782.78	142.250
783.10	142.900
783.42	142.700
783.74	142.500
784.06	143.000
784.39	141.850
784.71	143.250
785.03	142.900
785.35	143.550
785.67	142.150
785.99	142.200
786.31	142.100
786.64	143.250
786.96	142.350
787.28	143.050
787.60	142.600
787.92	142.000
788.24	143.050
788.56	141.900
788.88	142.050
789.20	147.250
789.53	143.150
789.85	142.900
790.17	142.650
790.49	142.200
790.81	141.700
791.13	143.200
791.45	142.400
