OOIBase32 Version 2.0.6.5 Data File
++++++++++++++++++++++++++++++++++++
Date: 04-16-2021, 17:10:07
User: Valued Ocean Optics Customer
Spectrometer Serial Number: USB2E5007
Spectrometer Channel: Master
Integration Time (msec): 45
Spectra Averaged: 20
Boxcar Smoothing: 0
Correct for Electrical Dark: Disabled
Time Normalized: Disabled
Dual-beam Reference: Disabled
Reference Channel: Master
Temperature: Not acquired
Spectrometer Type: S2000
ADC Type: USB2000
Number of Pixels in File: 2048
Graph Title: 
>>>>>Begin Spectral Data<<<<<
340.15	0.000
340.52	129.150
340.90	130.950
341.27	133.100
341.64	134.600
342.01	137.850
342.38	138.550
342.76	139.150
343.13	140.650
343.50	139.200
343.87	140.750
344.24	141.150
344.61	141.000
344.98	140.700
345.36	140.600
345.73	140.150
346.10	139.200
346.47	140.850
346.84	139.600
347.21	139.500
347.58	140.350
347.96	143.750
348.33	139.550
348.70	139.400
349.07	141.500
349.44	141.800
349.81	142.950
350.18	141.600
350.55	141.700
350.92	142.500
351.30	143.650
351.67	142.300
352.04	142.300
352.41	142.050
352.78	143.650
353.15	142.800
353.52	142.400
353.89	145.050
354.26	142.250
354.63	142.350
355.00	144.100
355.37	143.900
355.75	144.300
356.12	144.150
356.49	144.150
356.86	143.850
357.23	143.200
357.60	143.550
357.97	143.650
358.34	143.450
358.71	145.400
359.08	143.650
359.45	143.850
359.82	144.900
360.19	144.900
360.56	143.450
360.93	145.050
361.30	145.000
361.67	144.300
362.04	145.750
362.41	143.950
362.78	144.800
363.15	146.900
363.52	146.400
363.89	145.000
364.26	144.550
364.63	144.550
365.00	144.500
365.37	145.550
365.74	145.650
366.11	146.000
366.48	146.050
366.85	145.150
367.22	144.800
367.59	146.750
367.96	144.900
368.33	145.400
368.70	145.250
369.07	145.650
369.44	144.850
369.81	147.100
370.18	146.850
370.55	145.150
370.92	145.200
371.29	145.950
371.66	147.250
372.03	146.250
372.40	146.750
372.77	146.400
373.13	145.750
373.50	146.650
373.87	146.250
374.24	147.550
374.61	147.000
374.98	146.550
375.35	146.650
375.72	146.350
376.09	147.700
376.46	147.950
376.83	146.950
377.20	146.400
377.56	147.950
377.93	147.400
378.30	147.550
378.67	146.200
379.04	147.100
379.41	146.600
379.78	147.050
380.15	148.400
380.51	146.500
380.88	146.950
381.25	146.300
381.62	147.850
381.99	147.150
382.36	147.350
382.73	146.900
383.09	148.450
383.46	148.100
383.83	148.550
384.20	148.550
384.57	148.650
384.94	147.650
385.31	147.700
385.67	148.850
386.04	148.050
386.41	148.250
386.78	149.150
387.15	148.850
387.51	148.400
387.88	147.800
388.25	148.150
388.62	147.850
388.99	148.350
389.36	147.900
389.72	149.050
390.09	151.650
390.46	149.050
390.83	148.350
391.19	149.350
391.56	148.450
391.93	148.400
392.30	149.600
392.67	150.350
393.03	148.000
393.40	149.500
393.77	149.850
394.14	149.700
394.50	148.850
394.87	149.150
395.24	148.600
395.61	148.850
395.97	150.400
396.34	149.250
396.71	148.050
397.08	150.750
397.44	149.850
397.81	149.250
398.18	149.800
398.55	149.600
398.91	150.350
399.28	150.050
399.65	150.500
400.01	151.800
400.38	150.350
400.75	149.600
401.12	150.350
401.48	150.150
401.85	151.150
402.22	149.850
402.58	150.400
402.95	151.700
403.32	150.850
403.68	149.900
404.05	150.500
404.42	150.650
404.78	151.800
405.15	152.550
405.52	152.000
405.88	151.900
406.25	151.100
406.62	150.900
406.98	151.000
407.35	151.450
407.72	152.450
408.08	151.750
408.45	151.750
408.82	153.100
409.18	152.050
409.55	154.350
409.91	154.500
410.28	153.550
410.65	153.300
411.01	154.550
411.38	153.900
411.75	153.700
412.11	156.700
412.48	155.450
412.84	157.350
413.21	156.800
413.58	157.450
413.94	158.600
414.31	158.850
414.67	159.850
415.04	158.250
415.41	161.000
415.77	162.300
416.14	164.150
416.50	163.400
416.87	164.650
417.23	164.150
417.60	166.600
417.97	166.600
418.33	169.450
418.70	170.950
419.06	173.900
419.43	173.800
419.79	175.850
420.16	178.050
420.52	182.800
420.89	185.350
421.25	186.250
421.62	189.700
421.98	190.650
422.35	194.200
422.72	193.500
423.08	199.550
423.45	205.000
423.81	206.050
424.18	211.050
424.54	214.350
424.91	218.100
425.27	225.900
425.64	230.200
426.00	238.950
426.37	243.250
426.73	245.500
427.09	256.400
427.46	261.050
427.82	267.950
428.19	273.700
428.55	283.650
428.92	291.700
429.28	305.350
429.65	316.350
430.01	339.500
430.38	339.400
430.74	348.700
431.11	352.550
431.47	388.100
431.83	386.650
432.20	417.550
432.56	424.500
432.93	449.550
433.29	452.600
433.66	464.550
434.02	504.650
434.38	493.450
434.75	542.750
435.11	537.400
435.48	575.350
435.84	586.200
436.20	634.050
436.57	635.700
436.93	670.100
437.30	713.650
437.66	707.650
438.02	790.450
438.39	813.400
438.75	831.850
439.12	915.750
439.48	932.850
439.84	955.400
440.21	1002.950
440.57	1028.650
440.93	1180.800
441.30	1189.250
441.66	1215.000
442.02	1300.300
442.39	1304.400
442.75	1364.450
443.11	1390.450
443.48	1467.800
443.84	1527.850
444.20	1534.700
444.57	1745.900
444.93	1779.350
445.29	1912.100
445.66	1888.800
446.02	1978.800
446.38	2151.050
446.75	2191.800
447.11	2277.150
447.47	2226.800
447.84	2307.200
448.20	2481.100
448.56	2589.550
448.92	2652.500
449.29	2650.600
449.65	2675.900
450.01	2759.850
450.37	2706.550
450.74	2830.000
451.10	2908.200
451.46	2977.300
451.83	2842.250
452.19	2884.400
452.55	2761.700
452.91	2922.450
453.28	2952.900
453.64	2986.150
454.00	2942.200
454.36	2674.550
454.72	2858.850
455.09	2741.950
455.45	2762.300
455.81	2675.450
456.17	2591.850
456.54	2560.500
456.90	2524.500
457.26	2357.650
457.62	2359.800
457.98	2343.250
458.35	2308.700
458.71	2158.800
459.07	2128.650
459.43	1999.900
459.79	1981.550
460.16	1852.050
460.52	1808.350
460.88	1790.450
461.24	1785.200
461.60	1739.300
461.96	1742.650
462.33	1643.550
462.69	1576.100
463.05	1526.150
463.41	1528.650
463.77	1472.800
464.13	1396.900
464.49	1429.650
464.86	1374.100
465.22	1335.600
465.58	1319.650
465.94	1326.300
466.30	1260.350
466.66	1283.900
467.02	1264.950
467.38	1217.200
467.75	1181.850
468.11	1152.400
468.47	1126.350
468.83	1121.400
469.19	1106.000
469.55	1093.550
469.91	1039.650
470.27	976.000
470.63	998.850
470.99	981.100
471.35	938.850
471.72	931.650
472.08	919.300
472.44	883.600
472.80	845.100
473.16	848.200
473.52	809.100
473.88	789.450
474.24	770.350
474.60	756.750
474.96	738.850
475.32	720.300
475.68	699.500
476.04	691.900
476.40	668.450
476.76	657.750
477.12	636.950
477.48	627.850
477.84	618.700
478.20	599.700
478.56	585.750
478.92	574.400
479.28	562.300
479.64	549.200
480.00	545.250
480.36	538.550
480.72	522.750
481.08	515.750
481.44	504.600
481.80	495.500
482.16	487.250
482.52	477.550
482.88	470.150
483.24	463.600
483.60	463.500
483.96	449.850
484.32	441.800
484.68	433.300
485.04	428.150
485.40	419.650
485.76	411.800
486.12	406.700
486.48	397.450
486.83	390.000
487.19	382.200
487.55	376.600
487.91	370.550
488.27	361.700
488.63	355.300
488.99	346.700
489.35	342.450
489.71	334.800
490.07	330.200
490.43	320.600
490.78	315.900
491.14	309.100
491.50	302.050
491.86	300.100
492.22	292.500
492.58	286.100
492.94	281.400
493.30	278.000
493.65	272.200
494.01	267.300
494.37	265.500
494.73	260.200
495.09	256.050
495.45	252.500
495.80	249.600
496.16	244.850
496.52	242.100
496.88	237.450
497.24	233.100
497.60	231.700
497.95	227.700
498.31	225.600
498.67	221.800
499.03	222.100
499.39	219.050
499.74	214.800
500.10	213.650
500.46	212.350
500.82	210.450
501.18	209.700
501.53	205.500
501.89	204.200
502.25	202.850
502.61	199.350
502.96	199.250
503.32	197.200
503.68	200.100
504.04	195.900
504.40	192.600
504.75	191.550
505.11	190.750
505.47	189.000
505.82	187.650
506.18	187.050
506.54	186.050
506.90	183.300
507.25	183.700
507.61	182.900
507.97	181.400
508.33	179.950
508.68	180.100
509.04	178.400
509.40	178.350
509.75	175.300
510.11	176.000
510.47	174.250
510.82	174.200
511.18	171.750
511.54	172.850
511.89	171.450
512.25	170.350
512.61	169.700
512.96	169.400
513.32	168.850
513.68	167.850
514.03	166.900
514.39	168.050
514.75	166.600
515.10	167.900
515.46	165.900
515.82	164.050
516.17	164.000
516.53	165.300
516.89	162.550
517.24	161.850
517.60	162.900
517.95	163.600
518.31	161.850
518.67	163.550
519.02	162.350
519.38	161.600
519.73	160.050
520.09	161.150
520.45	160.850
520.80	159.750
521.16	159.800
521.51	159.050
521.87	158.250
522.22	157.450
522.58	157.550
522.94	157.550
523.29	156.650
523.65	157.200
524.00	158.900
524.36	158.200
524.71	157.800
525.07	156.000
525.42	156.750
525.78	156.800
526.14	156.400
526.49	157.100
526.85	157.250
527.20	155.500
527.56	156.350
527.91	155.500
528.27	155.350
528.62	155.600
528.98	153.950
529.33	154.350
529.69	154.200
530.04	153.850
530.40	154.400
530.75	154.100
531.11	153.950
531.46	155.050
531.81	153.800
532.17	153.900
532.52	153.400
532.88	152.250
533.23	152.050
533.59	154.750
533.94	152.950
534.30	151.300
534.65	153.100
535.01	153.400
535.36	153.150
535.71	151.450
536.07	152.550
536.42	154.250
536.78	152.750
537.13	152.050
537.48	153.550
537.84	152.450
538.19	154.050
538.55	153.550
538.90	155.000
539.25	156.700
539.61	157.600
539.96	159.200
540.32	159.300
540.67	157.250
541.02	156.350
541.38	155.050
541.73	155.200
542.08	155.000
542.44	155.050
542.79	154.250
543.15	155.550
543.50	157.100
543.85	158.350
544.21	160.500
544.56	158.450
544.91	159.200
545.27	155.150
545.62	155.000
545.97	153.450
546.32	153.700
546.68	153.500
547.03	151.300
547.38	152.350
547.74	152.150
548.09	151.200
548.44	150.450
548.80	150.200
549.15	151.050
549.50	149.400
549.85	152.550
550.21	150.250
550.56	150.900
550.91	149.200
551.26	150.100
551.62	149.800
551.97	150.150
552.32	149.100
552.67	148.500
553.03	149.700
553.38	148.700
553.73	149.550
554.08	148.700
554.44	148.300
554.79	150.100
555.14	150.000
555.49	147.750
555.85	148.050
556.20	148.050
556.55	148.550
556.90	148.350
557.25	147.950
557.61	147.250
557.96	150.650
558.31	149.700
558.66	147.250
559.01	149.250
559.36	149.600
559.72	148.200
560.07	148.750
560.42	148.500
560.77	149.500
561.12	148.650
561.47	148.750
561.83	146.500
562.18	148.750
562.53	147.800
562.88	148.700
563.23	149.400
563.58	147.000
563.93	147.050
564.28	150.400
564.64	148.500
564.99	146.900
565.34	147.550
565.69	149.250
566.04	148.550
566.39	146.750
566.74	147.800
567.09	148.350
567.44	148.750
567.79	148.500
568.14	148.300
568.50	147.750
568.85	147.200
569.20	146.450
569.55	146.700
569.90	147.600
570.25	146.800
570.60	147.750
570.95	145.800
571.30	147.150
571.65	146.600
572.00	146.150
572.35	147.800
572.70	146.500
573.05	146.700
573.40	146.550
573.75	147.150
574.10	147.550
574.45	147.300
574.80	147.200
575.15	146.100
575.50	148.200
575.85	147.550
576.20	147.750
576.55	146.350
576.90	147.400
577.25	146.500
577.60	147.900
577.95	146.800
578.30	148.300
578.65	147.450
579.00	148.000
579.35	148.600
579.70	147.150
580.05	146.600
580.40	147.400
580.74	147.650
581.09	146.300
581.44	148.050
581.79	147.550
582.14	147.900
582.49	148.000
582.84	147.200
583.19	146.850
583.54	148.450
583.89	147.750
584.24	147.050
584.58	146.500
584.93	146.200
585.28	146.900
585.63	146.850
585.98	147.550
586.33	148.000
586.68	146.700
587.03	147.900
587.37	146.800
587.72	145.750
588.07	145.850
588.42	146.450
588.77	145.900
589.12	147.050
589.46	147.000
589.81	146.200
590.16	145.000
590.51	146.000
590.86	146.650
591.21	146.600
591.55	147.200
591.90	147.000
592.25	145.950
592.60	146.850
592.95	145.350
593.29	145.750
593.64	146.500
593.99	146.600
594.34	146.150
594.68	146.600
595.03	146.350
595.38	146.650
595.73	145.700
596.07	144.850
596.42	145.700
596.77	147.000
597.12	146.050
597.46	145.500
597.81	145.600
598.16	146.050
598.51	146.800
598.85	145.350
599.20	145.200
599.55	144.800
599.90	145.600
600.24	144.900
600.59	145.150
600.94	145.450
601.28	145.900
601.63	144.800
601.98	144.550
602.32	146.150
602.67	146.550
603.02	145.500
603.36	145.100
603.71	145.900
604.06	145.700
604.40	145.700
604.75	147.100
605.10	146.350
605.44	148.250
605.79	145.800
606.14	145.800
606.48	146.550
606.83	145.900
607.17	145.800
607.52	146.800
607.87	146.650
608.21	147.300
608.56	146.650
608.90	153.050
609.25	153.150
609.60	154.100
609.94	153.400
610.29	153.000
610.63	150.700
610.98	149.800
611.33	150.250
611.67	150.500
612.02	149.000
612.36	147.400
612.71	148.200
613.05	147.250
613.40	146.650
613.74	147.750
614.09	146.800
614.44	146.350
614.78	144.150
615.13	145.850
615.47	145.950
615.82	146.100
616.16	145.100
616.51	146.450
616.85	145.850
617.20	145.250
617.54	145.650
617.89	144.850
618.23	144.900
618.58	145.900
618.92	145.500
619.27	145.900
619.61	145.400
619.96	145.450
620.30	145.800
620.64	146.100
620.99	145.950
621.33	144.800
621.68	145.550
622.02	146.200
622.37	145.600
622.71	145.650
623.06	145.150
623.40	145.650
623.74	145.500
624.09	146.600
624.43	145.900
624.78	144.950
625.12	144.850
625.46	145.700
625.81	145.650
626.15	145.550
626.50	145.000
626.84	144.800
627.18	146.400
627.53	144.950
627.87	144.900
628.21	145.400
628.56	145.150
628.90	144.050
629.25	144.400
629.59	145.150
629.93	146.200
630.28	145.300
630.62	144.400
630.96	144.600
631.31	145.200
631.65	145.000
631.99	144.100
632.34	144.300
632.68	143.700
633.02	144.050
633.36	145.150
633.71	145.950
634.05	145.050
634.39	144.500
634.74	144.250
635.08	145.200
635.42	143.550
635.76	144.200
636.11	143.300
636.45	147.200
636.79	143.500
637.14	143.750
637.48	143.400
637.82	143.800
638.16	143.350
638.50	143.450
638.85	143.650
639.19	145.850
639.53	145.150
639.87	144.000
640.22	144.200
640.56	144.250
640.90	144.450
641.24	143.650
641.58	143.350
641.93	143.100
642.27	144.650
642.61	143.300
642.95	144.650
643.29	144.350
643.64	143.550
643.98	143.350
644.32	144.400
644.66	143.850
645.00	143.300
645.34	144.850
645.68	144.150
646.03	144.700
646.37	144.150
646.71	144.150
647.05	144.500
647.39	143.650
647.73	144.900
648.07	145.600
648.42	145.950
648.76	145.300
649.10	145.600
649.44	145.850
649.78	144.300
650.12	144.950
650.46	145.700
650.80	144.400
651.14	146.000
651.48	144.300
651.82	142.900
652.16	145.450
652.51	144.150
652.85	142.600
653.19	143.650
653.53	145.200
653.87	143.650
654.21	143.750
654.55	144.000
654.89	143.950
655.23	144.550
655.57	144.400
655.91	143.550
656.25	144.700
656.59	143.450
656.93	143.100
657.27	143.450
657.61	145.850
657.95	144.400
658.29	143.650
658.63	144.150
658.97	144.800
659.31	144.450
659.65	143.650
659.99	143.850
660.33	145.550
660.67	144.000
661.01	144.550
661.35	143.350
661.68	145.050
662.02	143.450
662.36	142.800
662.70	143.200
663.04	143.250
663.38	144.800
663.72	144.050
664.06	143.850
664.40	144.000
664.74	144.050
665.08	144.050
665.42	144.850
665.75	144.250
666.09	141.700
666.43	146.700
666.77	144.500
667.11	143.800
667.45	143.650
667.79	144.350
668.12	143.450
668.46	143.500
668.80	142.750
669.14	143.450
669.48	145.000
669.82	144.550
670.16	143.800
670.49	143.300
670.83	143.500
671.17	143.100
671.51	144.000
671.85	143.050
672.18	143.850
672.52	143.400
672.86	143.350
673.20	143.400
673.54	144.300
673.87	143.850
674.21	145.150
674.55	143.600
674.89	144.050
675.22	143.500
675.56	145.050
675.90	144.050
676.24	143.200
676.57	142.850
676.91	143.650
677.25	143.700
677.59	141.750
677.92	142.150
678.26	142.650
678.60	143.600
678.93	144.550
679.27	143.400
679.61	143.700
679.95	143.150
680.28	143.150
680.62	143.650
680.96	144.100
681.29	143.150
681.63	143.350
681.97	143.350
682.30	143.800
682.64	142.850
682.98	143.250
683.31	144.200
683.65	144.000
683.99	143.000
684.32	143.750
684.66	144.050
685.00	143.200
685.33	144.700
685.67	144.200
686.00	142.950
686.34	142.650
686.68	145.550
687.01	144.250
687.35	143.700
687.68	143.800
688.02	142.550
688.36	143.950
688.69	144.350
689.03	143.450
689.36	144.400
689.70	143.500
690.03	143.150
690.37	142.800
690.71	143.350
691.04	143.600
691.38	143.650
691.71	144.250
692.05	143.200
692.38	142.650
692.72	143.950
693.05	144.050
693.39	144.000
693.72	144.550
694.06	143.000
694.39	142.750
694.73	141.700
695.06	142.500
695.40	142.550
695.73	143.500
696.07	145.150
696.40	143.100
696.74	144.950
697.07	144.900
697.41	142.800
697.74	143.800
698.08	143.550
698.41	144.050
698.74	144.050
699.08	143.250
699.41	143.200
699.75	142.600
700.08	142.550
700.42	142.950
700.75	143.350
701.08	143.750
701.42	142.700
701.75	144.300
702.09	143.900
702.42	145.800
702.75	142.200
703.09	143.400
703.42	143.350
703.75	143.950
704.09	143.900
704.42	143.600
704.76	143.550
705.09	143.250
705.42	142.300
705.76	144.300
706.09	142.500
706.42	144.500
706.76	144.100
707.09	142.450
707.42	143.400
707.76	144.150
708.09	142.700
708.42	143.250
708.75	144.200
709.09	143.050
709.42	142.900
709.75	142.700
710.09	144.900
710.42	143.550
710.75	143.200
711.08	143.650
711.42	144.350
711.75	144.150
712.08	143.850
712.41	142.950
712.75	143.800
713.08	142.700
713.41	143.500
713.74	142.850
714.08	143.450
714.41	143.500
714.74	143.800
715.07	145.100
715.41	142.550
715.74	143.950
716.07	143.750
716.40	143.150
716.73	143.700
717.06	141.950
717.40	143.050
717.73	142.250
718.06	144.150
718.39	143.600
718.72	143.550
719.05	142.900
719.39	144.100
719.72	143.600
720.05	143.550
720.38	144.050
720.71	142.950
721.04	143.300
721.37	142.900
721.71	142.700
722.04	141.450
722.37	142.250
722.70	142.050
723.03	143.500
723.36	142.250
723.69	143.100
724.02	142.350
724.35	143.150
724.68	143.800
725.01	141.700
725.35	143.000
725.68	143.750
726.01	142.600
726.34	144.850
726.67	143.350
727.00	142.750
727.33	142.700
727.66	143.400
727.99	143.350
728.32	143.200
728.65	143.150
728.98	143.300
729.31	144.400
729.64	143.400
729.97	141.850
730.30	142.200
730.63	143.200
730.96	142.400
731.29	142.800
731.62	142.750
731.95	144.750
732.28	144.900
732.61	142.150
732.94	143.350
733.27	143.350
733.60	142.950
733.93	141.200
734.25	142.000
734.58	142.850
734.91	142.650
735.24	142.800
735.57	144.400
735.90	143.050
736.23	143.850
736.56	143.500
736.89	142.450
737.22	142.750
737.55	142.450
737.87	144.000
738.20	142.350
738.53	143.300
738.86	142.250
739.19	143.200
739.52	144.350
739.85	142.250
740.17	142.900
740.50	142.750
740.83	142.800
741.16	142.350
741.49	143.600
741.82	143.000
742.14	142.950
742.47	142.150
742.80	143.700
743.13	142.200
743.46	143.550
743.78	144.250
744.11	142.500
744.44	143.600
744.77	144.500
745.10	143.750
745.42	142.650
745.75	142.400
746.08	143.200
746.41	141.900
746.73	142.400
747.06	144.650
747.39	142.100
747.72	142.400
748.04	142.500
748.37	143.850
748.70	143.400
749.02	142.950
749.35	144.000
749.68	142.250
750.01	143.050
750.33	143.850
750.66	143.000
750.99	143.850
751.31	141.450
751.64	141.400
751.97	141.850
752.29	144.800
752.62	142.850
752.95	143.050
753.27	143.400
753.60	143.450
753.93	143.250
754.25	143.050
754.58	142.950
754.91	143.250
755.23	144.600
755.56	147.200
755.88	143.600
756.21	142.550
756.54	142.500
756.86	143.250
757.19	141.650
757.51	142.350
757.84	144.150
758.17	143.750
758.49	142.100
758.82	142.150
759.14	142.800
759.47	143.450
759.79	143.100
760.12	143.500
760.44	142.300
760.77	142.850
761.09	142.500
761.42	142.650
761.75	143.750
762.07	141.700
762.40	141.550
762.72	144.050
763.05	142.500
763.37	142.950
763.70	143.150
764.02	143.450
764.35	141.400
764.67	141.450
764.99	143.050
765.32	142.850
765.64	143.500
765.97	141.500
766.29	143.000
766.62	141.700
766.94	143.350
767.27	143.300
767.59	142.750
767.91	141.800
768.24	144.650
768.56	142.650
768.89	142.600
769.21	143.400
769.54	143.300
769.86	142.950
770.18	142.400
770.51	141.950
770.83	142.200
771.15	142.600
771.48	143.400
771.80	142.150
772.13	142.300
772.45	142.900
772.77	142.300
773.10	141.350
773.42	143.700
773.74	141.950
774.07	141.700
774.39	142.850
774.71	142.000
775.04	143.350
775.36	142.500
775.68	142.050
776.01	141.450
776.33	142.450
776.65	142.050
776.97	142.100
777.30	142.500
777.62	142.500
777.94	143.100
778.26	142.100
778.59	141.750
778.91	141.500
779.23	144.300
779.55	143.850
779.88	142.400
780.20	141.600
780.52	141.300
780.84	142.650
781.17	142.800
781.49	142.550
781.81	143.500
782.13	141.950
782.45	144.100
782.78	142.650
783.10	142.800
783.42	143.050
783.74	142.450
784.06	142.150
784.39	140.800
784.71	142.350
785.03	143.300
785.35	144.450
785.67	143.550
785.99	141.950
786.31	142.100
786.64	143.050
786.96	142.550
787.28	142.850
787.60	142.050
787.92	142.000
788.24	142.850
788.56	142.000
788.88	142.050
789.20	145.700
789.53	143.350
789.85	143.100
790.17	142.150
790.49	141.950
